Model,TBS2102B
Firmware Version,v1.31.14

Point Format,Y,
Horizontal Units,S,
Horizontal Scale,0.002,
Sample Interval,1.6e-05,
Filter Frequency,2e+08,
Record Length,2000,
Gating,0.0% to 100.0%,0.0% to 100.0%
Probe Attenuation,1,1
Vertical Units,V,V
Vertical Offset,0,0
Vertical Scale,1,0.2
Label,,
TIME,CH1,CH2
-1.600e-02,0.36,-0.24
-1.598e-02,0.44,-0.232
-1.597e-02,0.56,-0.224
-1.595e-02,0.72,-0.216
-1.594e-02,0.84,-0.216
-1.592e-02,0.88,-0.216
-1.590e-02,1.04,-0.208
-1.589e-02,1.16,-0.208
-1.587e-02,1.2,-0.2
-1.586e-02,1.28,-0.2
-1.584e-02,1.4,-0.2
-1.582e-02,1.48,-0.2
-1.581e-02,1.56,-0.2
-1.579e-02,1.64,-0.2
-1.578e-02,1.72,-0.2
-1.576e-02,1.8,-0.2
-1.574e-02,1.84,-0.208
-1.573e-02,1.92,-0.216
-1.571e-02,1.96,-0.224
-1.570e-02,2.08,-0.232
-1.568e-02,2.12,-0.24
-1.566e-02,2.16,-0.256
-1.565e-02,2.2,-0.264
-1.563e-02,2.28,-0.288
-1.562e-02,2.28,-0.304
-1.560e-02,2.32,-0.328
-1.558e-02,2.36,-0.352
-1.557e-02,2.36,-0.376
-1.555e-02,2.36,-0.4
-1.554e-02,2.36,-0.432
-1.552e-02,2.44,-0.464
-1.550e-02,2.36,-0.496
-1.549e-02,2.28,-0.536
-1.547e-02,2.28,-0.56
-1.546e-02,2.16,-0.592
-1.544e-02,2.04,-0.624
-1.542e-02,1.88,-0.648
-1.541e-02,1.68,-0.672
-1.539e-02,1.48,-0.688
-1.538e-02,1.24,-0.704
-1.536e-02,0.96,-0.712
-1.534e-02,0.68,-0.712
-1.533e-02,0.36,-0.704
-1.531e-02,0.08,-0.688
-1.530e-02,-0.24,-0.672
-1.528e-02,-0.48,-0.64
-1.526e-02,-0.72,-0.608
-1.525e-02,-0.96,-0.576
-1.523e-02,-1.16,-0.536
-1.522e-02,-1.32,-0.496
-1.520e-02,-1.4,-0.456
-1.518e-02,-1.44,-0.416
-1.517e-02,-1.48,-0.376
-1.515e-02,-1.48,-0.344
-1.514e-02,-1.44,-0.312
-1.512e-02,-1.36,-0.288
-1.510e-02,-1.32,-0.264
-1.509e-02,-1.2,-0.24
-1.507e-02,-1.12,-0.224
-1.506e-02,-1,-0.208
-1.504e-02,-0.96,-0.192
-1.502e-02,-0.84,-0.176
-1.501e-02,-0.76,-0.168
-1.499e-02,-0.64,-0.16
-1.498e-02,-0.6,-0.144
-1.496e-02,-0.52,-0.136
-1.494e-02,-0.4,-0.12
-1.493e-02,-0.36,-0.112
-1.491e-02,-0.36,-0.104
-1.490e-02,-0.24,-0.088
-1.488e-02,-0.16,-0.072
-1.486e-02,-0.12,-0.056
-1.485e-02,-0.08,-0.048
-1.483e-02,0,-0.024
-1.482e-02,0,0
-1.480e-02,0,0.016
-1.478e-02,0.04,0.032
-1.477e-02,0.08,0.056
-1.475e-02,0.04,0.088
-1.474e-02,0.04,0.112
-1.472e-02,0.04,0.136
-1.470e-02,0.04,0.168
-1.469e-02,0,0.192
-1.467e-02,-0.08,0.224
-1.466e-02,-0.08,0.256
-1.464e-02,-0.16,0.288
-1.462e-02,-0.24,0.32
-1.461e-02,-0.36,0.352
-1.459e-02,-0.44,0.392
-1.458e-02,-0.56,0.424
-1.456e-02,-0.68,0.456
-1.454e-02,-0.76,0.504
-1.453e-02,-0.88,0.536
-1.451e-02,-1.04,0.576
-1.450e-02,-1.16,0.608
-1.448e-02,-1.24,0.64
-1.446e-02,-1.32,0.68
-1.445e-02,-1.4,0.712
-1.443e-02,-1.4,0.736
-1.442e-02,-1.4,0.76
-1.440e-02,-1.36,0.768
-1.438e-02,-1.24,0.776
-1.437e-02,-1.04,0.776
-1.435e-02,-0.88,0.76
-1.434e-02,-0.6,0.736
-1.432e-02,-0.32,0.704
-1.430e-02,-0.04,0.656
-1.429e-02,0.28,0.592
-1.427e-02,0.64,0.528
-1.426e-02,0.92,0.44
-1.424e-02,1.2,0.352
-1.422e-02,1.48,0.256
-1.421e-02,1.72,0.16
-1.419e-02,1.84,0.056
-1.418e-02,1.96,-0.048
-1.416e-02,2.08,-0.152
-1.414e-02,2.16,-0.248
-1.413e-02,2.16,-0.352
-1.411e-02,2.12,-0.44
-1.410e-02,2.12,-0.528
-1.408e-02,2.04,-0.608
-1.406e-02,1.96,-0.672
-1.405e-02,1.8,-0.736
-1.403e-02,1.56,-0.792
-1.402e-02,1.36,-0.824
-1.400e-02,1.08,-0.856
-1.398e-02,0.76,-0.864
-1.397e-02,0.44,-0.864
-1.395e-02,0.12,-0.848
-1.394e-02,-0.2,-0.824
-1.392e-02,-0.52,-0.784
-1.390e-02,-0.84,-0.736
-1.389e-02,-1.08,-0.672
-1.387e-02,-1.24,-0.616
-1.386e-02,-1.4,-0.544
-1.384e-02,-1.44,-0.472
-1.382e-02,-1.4,-0.4
-1.381e-02,-1.4,-0.336
-1.379e-02,-1.36,-0.264
-1.378e-02,-1.24,-0.2
-1.376e-02,-1.12,-0.144
-1.374e-02,-1,-0.088
-1.373e-02,-0.92,-0.032
-1.371e-02,-0.84,0.008
-1.370e-02,-0.76,0.056
-1.368e-02,-0.72,0.096
-1.366e-02,-0.68,0.144
-1.365e-02,-0.64,0.184
-1.363e-02,-0.64,0.232
-1.362e-02,-0.72,0.272
-1.360e-02,-0.76,0.32
-1.358e-02,-0.8,0.36
-1.357e-02,-0.88,0.4
-1.355e-02,-0.96,0.448
-1.354e-02,-1.04,0.496
-1.352e-02,-1.12,0.544
-1.350e-02,-1.2,0.6
-1.349e-02,-1.32,0.648
-1.347e-02,-1.36,0.688
-1.346e-02,-1.4,0.736
-1.344e-02,-1.4,0.776
-1.342e-02,-1.4,0.808
-1.341e-02,-1.28,0.84
-1.339e-02,-1.2,0.864
-1.338e-02,-1,0.88
-1.336e-02,-0.72,0.88
-1.334e-02,-0.48,0.872
-1.333e-02,-0.12,0.848
-1.331e-02,0.28,0.808
-1.330e-02,0.6,0.76
-1.328e-02,1,0.696
-1.326e-02,1.32,0.624
-1.325e-02,1.64,0.536
-1.323e-02,1.88,0.44
-1.322e-02,2.08,0.344
-1.320e-02,2.28,0.24
-1.318e-02,2.36,0.136
-1.317e-02,2.44,0.032
-1.315e-02,2.48,-0.064
-1.314e-02,2.48,-0.168
-1.312e-02,2.48,-0.264
-1.310e-02,2.48,-0.36
-1.309e-02,2.44,-0.44
-1.307e-02,2.44,-0.528
-1.306e-02,2.4,-0.608
-1.304e-02,2.36,-0.688
-1.302e-02,2.32,-0.768
-1.301e-02,2.28,-0.832
-1.299e-02,2.12,-0.888
-1.298e-02,1.92,-0.936
-1.296e-02,1.72,-0.976
-1.294e-02,1.44,-1.008
-1.293e-02,1.12,-1.016
-1.291e-02,0.76,-1.016
-1.290e-02,0.32,-1.016
-1.288e-02,-0.08,-0.992
-1.286e-02,-0.4,-0.952
-1.285e-02,-0.76,-0.904
-1.283e-02,-1.04,-0.84
-1.282e-02,-1.24,-0.784
-1.280e-02,-1.32,-0.712
-1.278e-02,-1.36,-0.64
-1.277e-02,-1.32,-0.568
-1.275e-02,-1.2,-0.504
-1.274e-02,-1.04,-0.456
-1.272e-02,-0.84,-0.408
-1.270e-02,-0.64,-0.36
-1.269e-02,-0.48,-0.32
-1.267e-02,-0.2,-0.288
-1.266e-02,0,-0.264
-1.264e-02,0.12,-0.24
-1.262e-02,0.32,-0.224
-1.261e-02,0.48,-0.208
-1.259e-02,0.6,-0.2
-1.258e-02,0.72,-0.192
-1.256e-02,0.84,-0.176
-1.254e-02,0.96,-0.176
-1.253e-02,1.04,-0.16
-1.251e-02,1.08,-0.152
-1.250e-02,1.2,-0.152
-1.248e-02,1.28,-0.144
-1.246e-02,1.36,-0.136
-1.245e-02,1.4,-0.136
-1.243e-02,1.48,-0.128
-1.242e-02,1.56,-0.128
-1.240e-02,1.56,-0.128
-1.238e-02,1.64,-0.128
-1.237e-02,1.68,-0.136
-1.235e-02,1.76,-0.144
-1.234e-02,1.76,-0.144
-1.232e-02,1.8,-0.16
-1.230e-02,1.88,-0.168
-1.229e-02,1.92,-0.184
-1.227e-02,1.96,-0.2
-1.226e-02,2.04,-0.224
-1.224e-02,2.08,-0.24
-1.222e-02,2.12,-0.272
-1.221e-02,2.2,-0.304
-1.219e-02,2.24,-0.336
-1.218e-02,2.28,-0.368
-1.216e-02,2.28,-0.408
-1.214e-02,2.32,-0.448
-1.213e-02,2.36,-0.488
-1.211e-02,2.36,-0.536
-1.210e-02,2.36,-0.584
-1.208e-02,2.36,-0.632
-1.206e-02,2.32,-0.672
-1.205e-02,2.24,-0.72
-1.203e-02,2.12,-0.768
-1.202e-02,1.92,-0.8
-1.200e-02,1.76,-0.832
-1.198e-02,1.52,-0.856
-1.197e-02,1.2,-0.872
-1.195e-02,0.88,-0.888
-1.194e-02,0.56,-0.88
-1.192e-02,0.2,-0.872
-1.190e-02,-0.16,-0.848
-1.189e-02,-0.48,-0.816
-1.187e-02,-0.8,-0.776
-1.186e-02,-1.04,-0.736
-1.184e-02,-1.24,-0.688
-1.182e-02,-1.4,-0.64
-1.181e-02,-1.44,-0.584
-1.179e-02,-1.4,-0.536
-1.178e-02,-1.36,-0.488
-1.176e-02,-1.28,-0.448
-1.174e-02,-1.16,-0.424
-1.173e-02,-0.96,-0.392
-1.171e-02,-0.8,-0.368
-1.170e-02,-0.64,-0.352
-1.168e-02,-0.44,-0.336
-1.166e-02,-0.24,-0.328
-1.165e-02,-0.04,-0.328
-1.163e-02,0.08,-0.32
-1.162e-02,0.24,-0.32
-1.160e-02,0.44,-0.32
-1.158e-02,0.6,-0.336
-1.157e-02,0.72,-0.336
-1.155e-02,0.84,-0.336
-1.154e-02,1.04,-0.344
-1.152e-02,1.16,-0.352
-1.150e-02,1.32,-0.36
-1.149e-02,1.44,-0.368
-1.147e-02,1.6,-0.376
-1.146e-02,1.72,-0.384
-1.144e-02,1.84,-0.392
-1.142e-02,1.92,-0.4
-1.141e-02,2.04,-0.408
-1.139e-02,2.16,-0.416
-1.138e-02,2.24,-0.432
-1.136e-02,2.28,-0.44
-1.134e-02,2.36,-0.448
-1.133e-02,2.36,-0.456
-1.131e-02,2.4,-0.464
-1.130e-02,2.36,-0.464
-1.128e-02,2.36,-0.464
-1.126e-02,2.28,-0.472
-1.125e-02,2.2,-0.472
-1.123e-02,2.16,-0.472
-1.122e-02,2,-0.464
-1.120e-02,1.88,-0.456
-1.118e-02,1.68,-0.448
-1.117e-02,1.52,-0.432
-1.115e-02,1.4,-0.416
-1.114e-02,1.2,-0.4
-1.112e-02,0.96,-0.376
-1.110e-02,0.76,-0.352
-1.109e-02,0.6,-0.336
-1.107e-02,0.4,-0.304
-1.106e-02,0.2,-0.28
-1.104e-02,0.04,-0.248
-1.102e-02,-0.08,-0.216
-1.101e-02,-0.2,-0.192
-1.099e-02,-0.36,-0.16
-1.098e-02,-0.44,-0.136
-1.096e-02,-0.56,-0.12
-1.094e-02,-0.6,-0.104
-1.093e-02,-0.72,-0.08
-1.091e-02,-0.8,-0.064
-1.090e-02,-0.8,-0.064
-1.088e-02,-0.84,-0.048
-1.086e-02,-0.88,-0.04
-1.085e-02,-0.92,-0.04
-1.083e-02,-0.92,-0.04
-1.082e-02,-1,-0.04
-1.080e-02,-1,-0.04
-1.078e-02,-0.96,-0.048
-1.077e-02,-0.96,-0.056
-1.075e-02,-1,-0.056
-1.074e-02,-1,-0.056
-1.072e-02,-1,-0.064
-1.070e-02,-1.08,-0.072
-1.069e-02,-1.08,-0.064
-1.067e-02,-1.08,-0.064
-1.066e-02,-1.08,-0.064
-1.064e-02,-1.12,-0.064
-1.062e-02,-1.16,-0.056
-1.061e-02,-1.16,-0.048
-1.059e-02,-1.16,-0.04
-1.058e-02,-1.2,-0.024
-1.056e-02,-1.24,-0.008
-1.054e-02,-1.2,0.008
-1.053e-02,-1.24,0.024
-1.051e-02,-1.24,0.048
-1.050e-02,-1.24,0.08
-1.048e-02,-1.24,0.104
-1.046e-02,-1.24,0.136
-1.045e-02,-1.24,0.168
-1.043e-02,-1.2,0.2
-1.042e-02,-1.16,0.232
-1.040e-02,-1.16,0.264
-1.038e-02,-1.12,0.304
-1.037e-02,-1.08,0.336
-1.035e-02,-1,0.376
-1.034e-02,-0.92,0.4
-1.032e-02,-0.84,0.432
-1.030e-02,-0.68,0.456
-1.029e-02,-0.56,0.496
-1.027e-02,-0.4,0.512
-1.026e-02,-0.24,0.528
-1.024e-02,-0.04,0.536
-1.022e-02,0.16,0.536
-1.021e-02,0.36,0.536
-1.019e-02,0.6,0.52
-1.018e-02,0.84,0.512
-1.016e-02,1.04,0.48
-1.014e-02,1.28,0.448
-1.013e-02,1.48,0.416
-1.011e-02,1.64,0.376
-1.010e-02,1.88,0.336
-1.008e-02,2,0.28
-1.006e-02,2.08,0.232
-1.005e-02,2.2,0.176
-1.003e-02,2.28,0.12
-1.002e-02,2.32,0.064
-1.000e-02,2.36,0.008
-9.984e-03,2.36,-0.056
-9.968e-03,2.44,-0.104
-9.952e-03,2.4,-0.168
-9.936e-03,2.4,-0.224
-9.920e-03,2.4,-0.28
-9.904e-03,2.4,-0.336
-9.888e-03,2.36,-0.384
-9.872e-03,2.28,-0.44
-9.856e-03,2.28,-0.496
-9.840e-03,2.24,-0.552
-9.824e-03,2.08,-0.6
-9.808e-03,1.96,-0.648
-9.792e-03,1.84,-0.688
-9.776e-03,1.68,-0.728
-9.760e-03,1.48,-0.76
-9.744e-03,1.16,-0.784
-9.728e-03,0.92,-0.792
-9.712e-03,0.64,-0.8
-9.696e-03,0.28,-0.8
-9.680e-03,-0.04,-0.784
-9.664e-03,-0.36,-0.768
-9.648e-03,-0.6,-0.736
-9.632e-03,-0.88,-0.704
-9.616e-03,-1.16,-0.656
-9.600e-03,-1.28,-0.616
-9.584e-03,-1.36,-0.568
-9.568e-03,-1.44,-0.52
-9.552e-03,-1.44,-0.472
-9.536e-03,-1.4,-0.432
-9.520e-03,-1.32,-0.392
-9.504e-03,-1.2,-0.36
-9.488e-03,-1.12,-0.328
-9.472e-03,-0.96,-0.304
-9.456e-03,-0.8,-0.28
-9.440e-03,-0.64,-0.256
-9.424e-03,-0.52,-0.248
-9.408e-03,-0.4,-0.232
-9.392e-03,-0.24,-0.216
-9.376e-03,-0.12,-0.208
-9.360e-03,0,-0.2
-9.344e-03,0.08,-0.2
-9.328e-03,0.2,-0.184
-9.312e-03,0.32,-0.176
-9.296e-03,0.36,-0.176
-9.280e-03,0.48,-0.16
-9.264e-03,0.6,-0.152
-9.248e-03,0.68,-0.144
-9.232e-03,0.76,-0.136
-9.216e-03,0.84,-0.12
-9.200e-03,0.88,-0.12
-9.184e-03,0.96,-0.112
-9.168e-03,1,-0.096
-9.152e-03,1.08,-0.088
-9.136e-03,1.16,-0.08
-9.120e-03,1.16,-0.072
-9.104e-03,1.24,-0.072
-9.088e-03,1.28,-0.064
-9.072e-03,1.32,-0.056
-9.056e-03,1.36,-0.056
-9.040e-03,1.36,-0.056
-9.024e-03,1.44,-0.056
-9.008e-03,1.44,-0.056
-8.992e-03,1.48,-0.056
-8.976e-03,1.52,-0.064
-8.960e-03,1.56,-0.072
-8.944e-03,1.56,-0.08
-8.928e-03,1.6,-0.096
-8.912e-03,1.6,-0.112
-8.896e-03,1.64,-0.128
-8.880e-03,1.68,-0.144
-8.864e-03,1.68,-0.176
-8.848e-03,1.76,-0.2
-8.832e-03,1.84,-0.232
-8.816e-03,1.84,-0.264
-8.800e-03,1.88,-0.304
-8.784e-03,1.92,-0.344
-8.768e-03,2,-0.384
-8.752e-03,2.08,-0.44
-8.736e-03,2.12,-0.488
-8.720e-03,2.24,-0.544
-8.704e-03,2.28,-0.6
-8.688e-03,2.32,-0.656
-8.672e-03,2.36,-0.72
-8.656e-03,2.4,-0.776
-8.640e-03,2.32,-0.832
-8.624e-03,2.24,-0.888
-8.608e-03,2.08,-0.936
-8.592e-03,1.92,-0.976
-8.576e-03,1.68,-1.008
-8.560e-03,1.4,-1.016
-8.544e-03,0.96,-1.016
-8.528e-03,0.6,-1.016
-8.512e-03,0.2,-1.016
-8.496e-03,-0.16,-0.992
-8.480e-03,-0.56,-0.952
-8.464e-03,-0.88,-0.912
-8.448e-03,-1.12,-0.848
-8.432e-03,-1.28,-0.792
-8.416e-03,-1.36,-0.728
-8.400e-03,-1.36,-0.664
-8.384e-03,-1.24,-0.608
-8.368e-03,-1.12,-0.56
-8.352e-03,-0.96,-0.52
-8.336e-03,-0.72,-0.472
-8.320e-03,-0.44,-0.448
-8.304e-03,-0.2,-0.424
-8.288e-03,0.04,-0.408
-8.272e-03,0.28,-0.4
-8.256e-03,0.52,-0.4
-8.240e-03,0.76,-0.408
-8.224e-03,0.92,-0.4
-8.208e-03,1.12,-0.408
-8.192e-03,1.32,-0.416
-8.176e-03,1.48,-0.424
-8.160e-03,1.6,-0.44
-8.144e-03,1.76,-0.448
-8.128e-03,1.92,-0.456
-8.112e-03,2.08,-0.472
-8.096e-03,2.12,-0.48
-8.080e-03,2.24,-0.496
-8.064e-03,2.28,-0.504
-8.048e-03,2.36,-0.512
-8.032e-03,2.4,-0.52
-8.016e-03,2.36,-0.528
-8.000e-03,2.36,-0.528
-7.984e-03,2.32,-0.528
-7.968e-03,2.24,-0.528
-7.952e-03,2.12,-0.52
-7.936e-03,2,-0.504
-7.920e-03,1.84,-0.496
-7.904e-03,1.68,-0.472
-7.888e-03,1.48,-0.448
-7.872e-03,1.28,-0.424
-7.856e-03,1.08,-0.392
-7.840e-03,0.84,-0.36
-7.824e-03,0.64,-0.32
-7.808e-03,0.44,-0.28
-7.792e-03,0.28,-0.248
-7.776e-03,0.08,-0.2
-7.760e-03,-0.08,-0.168
-7.744e-03,-0.2,-0.12
-7.728e-03,-0.28,-0.08
-7.712e-03,-0.4,-0.048
-7.696e-03,-0.48,-0.024
-7.680e-03,-0.52,0
-7.664e-03,-0.56,0.024
-7.648e-03,-0.6,0.048
-7.632e-03,-0.6,0.056
-7.616e-03,-0.6,0.064
-7.600e-03,-0.6,0.072
-7.584e-03,-0.64,0.064
-7.568e-03,-0.56,0.064
-7.552e-03,-0.52,0.056
-7.536e-03,-0.56,0.04
-7.520e-03,-0.52,0.024
-7.504e-03,-0.48,0.016
-7.488e-03,-0.44,-0.008
-7.472e-03,-0.48,-0.032
-7.456e-03,-0.44,-0.048
-7.440e-03,-0.44,-0.072
-7.424e-03,-0.44,-0.096
-7.408e-03,-0.44,-0.112
-7.392e-03,-0.48,-0.136
-7.376e-03,-0.48,-0.152
-7.360e-03,-0.52,-0.168
-7.344e-03,-0.6,-0.176
-7.328e-03,-0.64,-0.184
-7.312e-03,-0.68,-0.192
-7.296e-03,-0.72,-0.192
-7.280e-03,-0.8,-0.184
-7.264e-03,-0.88,-0.176
-7.248e-03,-0.92,-0.168
-7.232e-03,-1,-0.144
-7.216e-03,-1.08,-0.128
-7.200e-03,-1.12,-0.104
-7.184e-03,-1.16,-0.072
-7.168e-03,-1.2,-0.04
-7.152e-03,-1.24,-0.008
-7.136e-03,-1.24,0.024
-7.120e-03,-1.24,0.064
-7.104e-03,-1.32,0.104
-7.088e-03,-1.32,0.144
-7.072e-03,-1.28,0.2
-7.056e-03,-1.28,0.232
-7.040e-03,-1.28,0.28
-7.024e-03,-1.2,0.32
-7.008e-03,-1.2,0.36
-6.992e-03,-1.16,0.4
-6.976e-03,-1.04,0.448
-6.960e-03,-0.92,0.48
-6.944e-03,-0.84,0.512
-6.928e-03,-0.72,0.544
-6.912e-03,-0.52,0.568
-6.896e-03,-0.32,0.584
-6.880e-03,-0.16,0.592
-6.864e-03,0.08,0.6
-6.848e-03,0.36,0.592
-6.832e-03,0.56,0.584
-6.816e-03,0.84,0.568
-6.800e-03,1.12,0.536
-6.784e-03,1.36,0.496
-6.768e-03,1.56,0.456
-6.752e-03,1.76,0.4
-6.736e-03,1.96,0.352
-6.720e-03,2.08,0.296
-6.704e-03,2.2,0.232
-6.688e-03,2.28,0.176
-6.672e-03,2.36,0.112
-6.656e-03,2.36,0.04
-6.640e-03,2.44,-0.024
-6.624e-03,2.48,-0.08
-6.608e-03,2.44,-0.136
-6.592e-03,2.44,-0.2
-6.576e-03,2.44,-0.264
-6.560e-03,2.48,-0.328
-6.544e-03,2.4,-0.392
-6.528e-03,2.36,-0.448
-6.512e-03,2.36,-0.504
-6.496e-03,2.32,-0.56
-6.480e-03,2.24,-0.616
-6.464e-03,2.16,-0.672
-6.448e-03,2,-0.72
-6.432e-03,1.88,-0.76
-6.416e-03,1.64,-0.8
-6.400e-03,1.4,-0.824
-6.384e-03,1.12,-0.848
-6.368e-03,0.8,-0.864
-6.352e-03,0.48,-0.864
-6.336e-03,0.12,-0.856
-6.320e-03,-0.2,-0.832
-6.304e-03,-0.52,-0.808
-6.288e-03,-0.8,-0.768
-6.272e-03,-1.08,-0.72
-6.256e-03,-1.28,-0.672
-6.240e-03,-1.36,-0.624
-6.224e-03,-1.4,-0.576
-6.208e-03,-1.4,-0.528
-6.192e-03,-1.4,-0.48
-6.176e-03,-1.28,-0.432
-6.160e-03,-1.16,-0.4
-6.144e-03,-1,-0.368
-6.128e-03,-0.84,-0.336
-6.112e-03,-0.64,-0.312
-6.096e-03,-0.44,-0.296
-6.080e-03,-0.32,-0.288
-6.064e-03,-0.2,-0.272
-6.048e-03,-0.04,-0.264
-6.032e-03,0.16,-0.256
-6.016e-03,0.28,-0.248
-6.000e-03,0.4,-0.248
-5.984e-03,0.56,-0.248
-5.968e-03,0.68,-0.24
-5.952e-03,0.8,-0.24
-5.936e-03,0.88,-0.24
-5.920e-03,1.04,-0.24
-5.904e-03,1.16,-0.232
-5.888e-03,1.24,-0.24
-5.872e-03,1.32,-0.232
-5.856e-03,1.44,-0.232
-5.840e-03,1.56,-0.232
-5.824e-03,1.6,-0.248
-5.808e-03,1.68,-0.24
-5.792e-03,1.84,-0.24
-5.776e-03,1.88,-0.248
-5.760e-03,1.96,-0.248
-5.744e-03,2.04,-0.264
-5.728e-03,2.12,-0.264
-5.712e-03,2.16,-0.28
-5.696e-03,2.2,-0.288
-5.680e-03,2.28,-0.296
-5.664e-03,2.32,-0.312
-5.648e-03,2.32,-0.328
-5.632e-03,2.36,-0.352
-5.616e-03,2.36,-0.368
-5.600e-03,2.44,-0.392
-5.584e-03,2.4,-0.416
-5.568e-03,2.36,-0.432
-5.552e-03,2.36,-0.456
-5.536e-03,2.32,-0.48
-5.520e-03,2.2,-0.504
-5.504e-03,2.12,-0.528
-5.488e-03,2.04,-0.544
-5.472e-03,1.92,-0.568
-5.456e-03,1.76,-0.584
-5.440e-03,1.56,-0.6
-5.424e-03,1.36,-0.608
-5.408e-03,1.12,-0.616
-5.392e-03,0.88,-0.616
-5.376e-03,0.56,-0.608
-5.360e-03,0.32,-0.608
-5.344e-03,0.08,-0.584
-5.328e-03,-0.2,-0.568
-5.312e-03,-0.44,-0.544
-5.296e-03,-0.68,-0.512
-5.280e-03,-0.88,-0.48
-5.264e-03,-1.04,-0.448
-5.248e-03,-1.2,-0.416
-5.232e-03,-1.32,-0.392
-5.216e-03,-1.36,-0.36
-5.200e-03,-1.48,-0.32
-5.184e-03,-1.48,-0.288
-5.168e-03,-1.48,-0.256
-5.152e-03,-1.48,-0.24
-5.136e-03,-1.44,-0.216
-5.120e-03,-1.4,-0.184
-5.104e-03,-1.36,-0.168
-5.088e-03,-1.32,-0.152
-5.072e-03,-1.28,-0.136
-5.056e-03,-1.24,-0.12
-5.040e-03,-1.16,-0.096
-5.024e-03,-1.12,-0.08
-5.008e-03,-1.12,-0.064
-4.992e-03,-1.04,-0.048
-4.976e-03,-1,-0.032
-4.960e-03,-1,-0.016
-4.944e-03,-1,0
-4.928e-03,-0.96,0.024
-4.912e-03,-0.92,0.048
-4.896e-03,-0.96,0.072
-4.880e-03,-0.96,0.104
-4.864e-03,-0.92,0.136
-4.848e-03,-0.92,0.168
-4.832e-03,-1,0.2
-4.816e-03,-1,0.24
-4.800e-03,-1,0.28
-4.784e-03,-1.08,0.32
-4.768e-03,-1.16,0.368
-4.752e-03,-1.2,0.408
-4.736e-03,-1.24,0.464
-4.720e-03,-1.28,0.512
-4.704e-03,-1.36,0.56
-4.688e-03,-1.4,0.6
-4.672e-03,-1.4,0.656
-4.656e-03,-1.44,0.704
-4.640e-03,-1.4,0.744
-4.624e-03,-1.32,0.792
-4.608e-03,-1.24,0.824
-4.592e-03,-1.12,0.848
-4.576e-03,-0.84,0.864
-4.560e-03,-0.6,0.88
-4.544e-03,-0.32,0.88
-4.528e-03,0.04,0.864
-4.512e-03,0.36,0.832
-4.496e-03,0.76,0.792
-4.480e-03,1.12,0.744
-4.464e-03,1.48,0.672
-4.448e-03,1.72,0.6
-4.432e-03,1.96,0.52
-4.416e-03,2.16,0.44
-4.400e-03,2.32,0.344
-4.384e-03,2.4,0.256
-4.368e-03,2.48,0.168
-4.352e-03,2.44,0.072
-4.336e-03,2.44,-0.016
-4.320e-03,2.36,-0.096
-4.304e-03,2.36,-0.168
-4.288e-03,2.36,-0.256
-4.272e-03,2.32,-0.328
-4.256e-03,2.32,-0.4
-4.240e-03,2.36,-0.472
-4.224e-03,2.32,-0.544
-4.208e-03,2.36,-0.616
-4.192e-03,2.36,-0.688
-4.176e-03,2.36,-0.752
-4.160e-03,2.36,-0.816
-4.144e-03,2.24,-0.88
-4.128e-03,2.08,-0.928
-4.112e-03,1.88,-0.976
-4.096e-03,1.68,-1.016
-4.080e-03,1.4,-1.016
-4.064e-03,1,-1.016
-4.048e-03,0.64,-1.016
-4.032e-03,0.24,-1.016
-4.016e-03,-0.16,-1
-4.000e-03,-0.52,-0.96
-3.984e-03,-0.88,-0.912
-3.968e-03,-1.12,-0.856
-3.952e-03,-1.28,-0.784
-3.936e-03,-1.36,-0.72
-3.920e-03,-1.36,-0.656
-3.904e-03,-1.24,-0.592
-3.888e-03,-1.12,-0.536
-3.872e-03,-0.92,-0.48
-3.856e-03,-0.76,-0.44
-3.840e-03,-0.48,-0.408
-3.824e-03,-0.24,-0.384
-3.808e-03,0,-0.36
-3.792e-03,0.24,-0.344
-3.776e-03,0.44,-0.328
-3.760e-03,0.68,-0.32
-3.744e-03,0.8,-0.328
-3.728e-03,1,-0.32
-3.712e-03,1.16,-0.32
-3.696e-03,1.32,-0.32
-3.680e-03,1.44,-0.32
-3.664e-03,1.56,-0.328
-3.648e-03,1.68,-0.336
-3.632e-03,1.8,-0.336
-3.616e-03,1.92,-0.344
-3.600e-03,1.96,-0.352
-3.584e-03,2.08,-0.36
-3.568e-03,2.16,-0.36
-3.552e-03,2.24,-0.368
-3.536e-03,2.28,-0.376
-3.520e-03,2.36,-0.384
-3.504e-03,2.4,-0.392
-3.488e-03,2.4,-0.408
-3.472e-03,2.4,-0.416
-3.456e-03,2.44,-0.424
-3.440e-03,2.36,-0.432
-3.424e-03,2.32,-0.44
-3.408e-03,2.24,-0.448
-3.392e-03,2.16,-0.456
-3.376e-03,2.04,-0.456
-3.360e-03,1.92,-0.464
-3.344e-03,1.76,-0.464
-3.328e-03,1.64,-0.464
-3.312e-03,1.44,-0.456
-3.296e-03,1.28,-0.456
-3.280e-03,1.04,-0.448
-3.264e-03,0.84,-0.432
-3.248e-03,0.68,-0.416
-3.232e-03,0.44,-0.4
-3.216e-03,0.24,-0.384
-3.200e-03,0.04,-0.36
-3.184e-03,-0.12,-0.344
-3.168e-03,-0.32,-0.32
-3.152e-03,-0.48,-0.304
-3.136e-03,-0.64,-0.28
-3.120e-03,-0.72,-0.248
-3.104e-03,-0.88,-0.224
-3.088e-03,-1,-0.208
-3.072e-03,-1.04,-0.184
-3.056e-03,-1.16,-0.168
-3.040e-03,-1.2,-0.152
-3.024e-03,-1.24,-0.136
-3.008e-03,-1.28,-0.12
-2.992e-03,-1.32,-0.104
-2.976e-03,-1.36,-0.096
-2.960e-03,-1.36,-0.088
-2.944e-03,-1.4,-0.072
-2.928e-03,-1.4,-0.072
-2.912e-03,-1.44,-0.056
-2.896e-03,-1.44,-0.04
-2.880e-03,-1.44,-0.032
-2.864e-03,-1.44,-0.032
-2.848e-03,-1.48,-0.008
-2.832e-03,-1.44,0
-2.816e-03,-1.44,0.016
-2.800e-03,-1.44,0.04
-2.784e-03,-1.44,0.056
-2.768e-03,-1.44,0.08
-2.752e-03,-1.44,0.104
-2.736e-03,-1.44,0.128
-2.720e-03,-1.44,0.152
-2.704e-03,-1.44,0.184
-2.688e-03,-1.48,0.216
-2.672e-03,-1.44,0.248
-2.656e-03,-1.4,0.28
-2.640e-03,-1.36,0.312
-2.624e-03,-1.36,0.344
-2.608e-03,-1.28,0.384
-2.592e-03,-1.24,0.416
-2.576e-03,-1.2,0.448
-2.560e-03,-1.12,0.48
-2.544e-03,-0.96,0.512
-2.528e-03,-0.84,0.544
-2.512e-03,-0.72,0.56
-2.496e-03,-0.52,0.584
-2.480e-03,-0.32,0.592
-2.464e-03,-0.12,0.6
-2.448e-03,0.08,0.6
-2.432e-03,0.4,0.592
-2.416e-03,0.64,0.576
-2.400e-03,0.92,0.56
-2.384e-03,1.16,0.528
-2.368e-03,1.44,0.488
-2.352e-03,1.64,0.448
-2.336e-03,1.8,0.4
-2.320e-03,1.96,0.344
-2.304e-03,2.12,0.296
-2.288e-03,2.2,0.24
-2.272e-03,2.28,0.184
-2.256e-03,2.36,0.12
-2.240e-03,2.4,0.056
-2.224e-03,2.4,0
-2.208e-03,2.44,-0.056
-2.192e-03,2.44,-0.112
-2.176e-03,2.44,-0.176
-2.160e-03,2.44,-0.224
-2.144e-03,2.44,-0.28
-2.128e-03,2.4,-0.344
-2.112e-03,2.36,-0.4
-2.096e-03,2.36,-0.448
-2.080e-03,2.36,-0.504
-2.064e-03,2.32,-0.56
-2.048e-03,2.2,-0.616
-2.032e-03,2.12,-0.664
-2.016e-03,2,-0.712
-2.000e-03,1.88,-0.752
-1.984e-03,1.64,-0.784
-1.968e-03,1.4,-0.816
-1.952e-03,1.12,-0.832
-1.936e-03,0.84,-0.84
-1.920e-03,0.48,-0.84
-1.904e-03,0.12,-0.832
-1.888e-03,-0.16,-0.816
-1.872e-03,-0.48,-0.784
-1.856e-03,-0.8,-0.752
-1.840e-03,-1.04,-0.712
-1.824e-03,-1.2,-0.664
-1.808e-03,-1.36,-0.616
-1.792e-03,-1.44,-0.56
-1.776e-03,-1.44,-0.512
-1.760e-03,-1.4,-0.472
-1.744e-03,-1.32,-0.432
-1.728e-03,-1.2,-0.392
-1.712e-03,-1.08,-0.36
-1.696e-03,-0.88,-0.336
-1.680e-03,-0.72,-0.312
-1.664e-03,-0.56,-0.296
-1.648e-03,-0.4,-0.28
-1.632e-03,-0.24,-0.264
-1.616e-03,-0.08,-0.264
-1.600e-03,0.04,-0.256
-1.584e-03,0.16,-0.248
-1.568e-03,0.32,-0.248
-1.552e-03,0.44,-0.24
-1.536e-03,0.56,-0.24
-1.520e-03,0.68,-0.24
-1.504e-03,0.8,-0.232
-1.488e-03,0.92,-0.232
-1.472e-03,1,-0.232
-1.456e-03,1.08,-0.232
-1.440e-03,1.24,-0.232
-1.424e-03,1.32,-0.224
-1.408e-03,1.4,-0.224
-1.392e-03,1.48,-0.224
-1.376e-03,1.6,-0.224
-1.360e-03,1.68,-0.224
-1.344e-03,1.76,-0.232
-1.328e-03,1.84,-0.232
-1.312e-03,1.92,-0.24
-1.296e-03,2,-0.24
-1.280e-03,2.04,-0.248
-1.264e-03,2.12,-0.264
-1.248e-03,2.2,-0.272
-1.232e-03,2.24,-0.288
-1.216e-03,2.28,-0.304
-1.200e-03,2.36,-0.32
-1.184e-03,2.36,-0.336
-1.168e-03,2.36,-0.36
-1.152e-03,2.36,-0.376
-1.136e-03,2.4,-0.4
-1.120e-03,2.44,-0.424
-1.104e-03,2.36,-0.448
-1.088e-03,2.36,-0.472
-1.072e-03,2.28,-0.504
-1.056e-03,2.24,-0.528
-1.040e-03,2.08,-0.552
-1.024e-03,1.96,-0.576
-1.008e-03,1.84,-0.6
-9.920e-04,1.68,-0.616
-9.760e-04,1.44,-0.632
-9.600e-04,1.24,-0.64
-9.440e-04,0.96,-0.648
-9.280e-04,0.72,-0.64
-9.120e-04,0.44,-0.632
-8.960e-04,0.12,-0.616
-8.800e-04,-0.12,-0.6
-8.640e-04,-0.36,-0.576
-8.480e-04,-0.6,-0.552
-8.320e-04,-0.84,-0.52
-8.160e-04,-1.04,-0.488
-8.000e-04,-1.2,-0.448
-7.840e-04,-1.32,-0.416
-7.680e-04,-1.44,-0.376
-7.520e-04,-1.44,-0.352
-7.360e-04,-1.48,-0.312
-7.200e-04,-1.48,-0.288
-7.040e-04,-1.48,-0.256
-6.880e-04,-1.44,-0.232
-6.720e-04,-1.36,-0.216
-6.560e-04,-1.36,-0.184
-6.400e-04,-1.28,-0.176
-6.240e-04,-1.2,-0.152
-6.080e-04,-1.16,-0.136
-5.920e-04,-1.12,-0.12
-5.760e-04,-1.08,-0.104
-5.600e-04,-0.96,-0.088
-5.440e-04,-0.92,-0.072
-5.280e-04,-0.92,-0.056
-5.120e-04,-0.88,-0.04
-4.960e-04,-0.8,-0.024
-4.800e-04,-0.8,0
-4.640e-04,-0.76,0.016
-4.480e-04,-0.76,0.04
-4.320e-04,-0.76,0.064
-4.160e-04,-0.72,0.104
-4.000e-04,-0.76,0.128
-3.840e-04,-0.76,0.152
-3.680e-04,-0.76,0.192
-3.520e-04,-0.8,0.224
-3.360e-04,-0.88,0.272
-3.200e-04,-0.92,0.304
-3.040e-04,-0.96,0.344
-2.880e-04,-1,0.392
-2.720e-04,-1.08,0.432
-2.560e-04,-1.12,0.48
-2.400e-04,-1.24,0.536
-2.240e-04,-1.32,0.584
-2.080e-04,-1.36,0.632
-1.920e-04,-1.4,0.68
-1.760e-04,-1.44,0.728
-1.600e-04,-1.44,0.776
-1.440e-04,-1.32,0.808
-1.280e-04,-1.28,0.848
-1.120e-04,-1.12,0.872
-9.600e-05,-0.88,0.888
-8.000e-05,-0.64,0.896
-6.400e-05,-0.36,0.888
-4.800e-05,0.04,0.864
-3.200e-05,0.4,0.832
-1.600e-05,0.72,0.784
2.440e-16,1.16,0.728
1.600e-05,1.48,0.656
3.200e-05,1.76,0.584
4.800e-05,2,0.488
6.400e-05,2.2,0.4
8.000e-05,2.32,0.304
9.600e-05,2.4,0.208
1.120e-04,2.44,0.112
1.280e-04,2.48,0.008
1.440e-04,2.44,-0.072
1.600e-04,2.4,-0.16
1.760e-04,2.44,-0.256
1.920e-04,2.44,-0.336
2.080e-04,2.36,-0.408
2.240e-04,2.36,-0.488
2.400e-04,2.36,-0.568
2.560e-04,2.4,-0.64
2.720e-04,2.36,-0.712
2.880e-04,2.32,-0.784
3.040e-04,2.28,-0.848
3.200e-04,2.2,-0.904
3.360e-04,2,-0.952
3.520e-04,1.8,-0.992
3.680e-04,1.56,-1.016
3.840e-04,1.24,-1.016
4.000e-04,0.88,-1.016
4.160e-04,0.44,-1.016
4.320e-04,0.04,-1.016
4.480e-04,-0.32,-0.984
4.640e-04,-0.64,-0.936
4.800e-04,-1,-0.888
4.960e-04,-1.2,-0.816
5.120e-04,-1.32,-0.752
5.280e-04,-1.36,-0.68
5.440e-04,-1.32,-0.616
5.600e-04,-1.24,-0.552
5.760e-04,-1.04,-0.496
5.920e-04,-0.84,-0.448
6.080e-04,-0.6,-0.408
6.240e-04,-0.36,-0.384
6.400e-04,-0.12,-0.344
6.560e-04,0.08,-0.328
6.720e-04,0.28,-0.312
6.880e-04,0.48,-0.296
7.040e-04,0.68,-0.288
7.200e-04,0.84,-0.288
7.360e-04,1,-0.28
7.520e-04,1.12,-0.288
7.680e-04,1.28,-0.28
7.840e-04,1.4,-0.28
8.000e-04,1.52,-0.28
8.160e-04,1.6,-0.28
8.320e-04,1.72,-0.288
8.480e-04,1.8,-0.296
8.640e-04,1.92,-0.288
8.800e-04,2,-0.296
8.960e-04,2.08,-0.304
9.120e-04,2.12,-0.312
9.280e-04,2.2,-0.328
9.440e-04,2.24,-0.328
9.600e-04,2.32,-0.336
9.760e-04,2.36,-0.36
9.920e-04,2.36,-0.36
1.008e-03,2.4,-0.376
1.024e-03,2.4,-0.392
1.040e-03,2.4,-0.408
1.056e-03,2.36,-0.424
1.072e-03,2.32,-0.44
1.088e-03,2.28,-0.456
1.104e-03,2.2,-0.464
1.120e-03,2.08,-0.488
1.136e-03,1.96,-0.496
1.152e-03,1.84,-0.512
1.168e-03,1.72,-0.52
1.184e-03,1.48,-0.528
1.200e-03,1.32,-0.536
1.216e-03,1.16,-0.528
1.232e-03,0.92,-0.528
1.248e-03,0.64,-0.52
1.264e-03,0.4,-0.504
1.280e-03,0.2,-0.488
1.296e-03,-0.04,-0.472
1.312e-03,-0.32,-0.448
1.328e-03,-0.48,-0.432
1.344e-03,-0.64,-0.408
1.360e-03,-0.84,-0.384
1.376e-03,-1,-0.352
1.392e-03,-1.12,-0.32
1.408e-03,-1.24,-0.296
1.424e-03,-1.32,-0.272
1.440e-03,-1.4,-0.24
1.456e-03,-1.44,-0.216
1.472e-03,-1.44,-0.192
1.488e-03,-1.48,-0.176
1.504e-03,-1.48,-0.152
1.520e-03,-1.48,-0.136
1.536e-03,-1.48,-0.112
1.552e-03,-1.48,-0.096
1.568e-03,-1.48,-0.08
1.584e-03,-1.44,-0.064
1.600e-03,-1.44,-0.056
1.616e-03,-1.44,-0.032
1.632e-03,-1.44,-0.016
1.648e-03,-1.4,0
1.664e-03,-1.4,0.024
1.680e-03,-1.36,0.048
1.696e-03,-1.4,0.064
1.712e-03,-1.36,0.096
1.728e-03,-1.36,0.12
1.744e-03,-1.4,0.152
1.760e-03,-1.4,0.184
1.776e-03,-1.4,0.216
1.792e-03,-1.4,0.256
1.808e-03,-1.4,0.288
1.824e-03,-1.44,0.328
1.840e-03,-1.44,0.368
1.856e-03,-1.44,0.408
1.872e-03,-1.44,0.456
1.888e-03,-1.44,0.504
1.904e-03,-1.4,0.552
1.920e-03,-1.4,0.584
1.936e-03,-1.28,0.632
1.952e-03,-1.2,0.664
1.968e-03,-1.08,0.696
1.984e-03,-0.92,0.72
2.000e-03,-0.64,0.744
2.016e-03,-0.48,0.752
2.032e-03,-0.16,0.76
2.048e-03,0.08,0.752
2.064e-03,0.4,0.736
2.080e-03,0.72,0.712
2.096e-03,1.12,0.672
2.112e-03,1.36,0.624
2.128e-03,1.64,0.568
2.144e-03,1.88,0.512
2.160e-03,2.08,0.448
2.176e-03,2.24,0.376
2.192e-03,2.36,0.304
2.208e-03,2.4,0.232
2.224e-03,2.48,0.16
2.240e-03,2.44,0.088
2.256e-03,2.44,0.016
2.272e-03,2.4,-0.04
2.288e-03,2.4,-0.112
2.304e-03,2.36,-0.176
2.320e-03,2.36,-0.248
2.336e-03,2.4,-0.304
2.352e-03,2.36,-0.368
2.368e-03,2.36,-0.424
2.384e-03,2.36,-0.488
2.400e-03,2.4,-0.552
2.416e-03,2.4,-0.608
2.432e-03,2.32,-0.672
2.448e-03,2.32,-0.736
2.464e-03,2.24,-0.784
2.480e-03,2.08,-0.84
2.496e-03,1.96,-0.88
2.512e-03,1.68,-0.92
2.528e-03,1.48,-0.952
2.544e-03,1.12,-0.968
2.560e-03,0.76,-0.968
2.576e-03,0.4,-0.968
2.592e-03,0,-0.952
2.608e-03,-0.32,-0.92
2.624e-03,-0.68,-0.88
2.640e-03,-0.96,-0.832
2.656e-03,-1.2,-0.776
2.672e-03,-1.32,-0.72
2.688e-03,-1.36,-0.664
2.704e-03,-1.4,-0.608
2.720e-03,-1.28,-0.552
2.736e-03,-1.16,-0.504
2.752e-03,-1,-0.464
2.768e-03,-0.84,-0.424
2.784e-03,-0.6,-0.4
2.800e-03,-0.32,-0.376
2.816e-03,-0.16,-0.36
2.832e-03,0.04,-0.352
2.848e-03,0.28,-0.344
2.864e-03,0.48,-0.344
2.880e-03,0.68,-0.344
2.896e-03,0.8,-0.344
2.912e-03,0.96,-0.352
2.928e-03,1.16,-0.352
2.944e-03,1.28,-0.36
2.960e-03,1.44,-0.36
2.976e-03,1.56,-0.368
2.992e-03,1.72,-0.376
3.008e-03,1.84,-0.384
3.024e-03,1.92,-0.392
3.040e-03,2.08,-0.4
3.056e-03,2.12,-0.416
3.072e-03,2.2,-0.416
3.088e-03,2.28,-0.432
3.104e-03,2.36,-0.44
3.120e-03,2.36,-0.448
3.136e-03,2.4,-0.448
3.152e-03,2.4,-0.456
3.168e-03,2.36,-0.464
3.184e-03,2.32,-0.464
3.200e-03,2.24,-0.464
3.216e-03,2.16,-0.464
3.232e-03,2.04,-0.464
3.248e-03,1.92,-0.464
3.264e-03,1.76,-0.456
3.280e-03,1.6,-0.44
3.296e-03,1.44,-0.424
3.312e-03,1.28,-0.408
3.328e-03,1.04,-0.392
3.344e-03,0.84,-0.368
3.360e-03,0.68,-0.344
3.376e-03,0.48,-0.328
3.392e-03,0.28,-0.288
3.408e-03,0.12,-0.264
3.424e-03,-0.04,-0.24
3.440e-03,-0.16,-0.216
3.456e-03,-0.32,-0.192
3.472e-03,-0.48,-0.168
3.488e-03,-0.52,-0.144
3.504e-03,-0.64,-0.12
3.520e-03,-0.72,-0.104
3.536e-03,-0.76,-0.088
3.552e-03,-0.8,-0.08
3.568e-03,-0.88,-0.072
3.584e-03,-0.92,-0.064
3.600e-03,-0.96,-0.056
3.616e-03,-0.96,-0.056
3.632e-03,-1,-0.056
3.648e-03,-1.04,-0.048
3.664e-03,-1.04,-0.056
3.680e-03,-1.04,-0.056
3.696e-03,-1.08,-0.064
3.712e-03,-1.08,-0.056
3.728e-03,-1.12,-0.056
3.744e-03,-1.12,-0.056
3.760e-03,-1.16,-0.064
3.776e-03,-1.2,-0.056
3.792e-03,-1.2,-0.064
3.808e-03,-1.2,-0.048
3.824e-03,-1.2,-0.04
3.840e-03,-1.2,-0.032
3.856e-03,-1.24,-0.016
3.872e-03,-1.24,-0.008
3.888e-03,-1.24,0.008
3.904e-03,-1.24,0.024
3.920e-03,-1.24,0.048
3.936e-03,-1.28,0.072
3.952e-03,-1.28,0.096
3.968e-03,-1.24,0.128
3.984e-03,-1.28,0.16
4.000e-03,-1.24,0.184
4.016e-03,-1.24,0.216
4.032e-03,-1.2,0.256
4.048e-03,-1.16,0.288
4.064e-03,-1.12,0.32
4.080e-03,-1.04,0.352
4.096e-03,-0.96,0.384
4.112e-03,-0.88,0.416
4.128e-03,-0.8,0.448
4.144e-03,-0.64,0.472
4.160e-03,-0.48,0.496
4.176e-03,-0.36,0.512
4.192e-03,-0.16,0.528
4.208e-03,0.04,0.528
4.224e-03,0.2,0.528
4.240e-03,0.48,0.528
4.256e-03,0.72,0.512
4.272e-03,0.92,0.496
4.288e-03,1.16,0.464
4.304e-03,1.36,0.432
4.320e-03,1.56,0.4
4.336e-03,1.72,0.368
4.352e-03,1.88,0.312
4.368e-03,2.04,0.264
4.384e-03,2.16,0.208
4.400e-03,2.2,0.152
4.416e-03,2.28,0.096
4.432e-03,2.36,0.04
4.448e-03,2.4,-0.008
4.464e-03,2.4,-0.064
4.480e-03,2.4,-0.12
4.496e-03,2.4,-0.184
4.512e-03,2.4,-0.24
4.528e-03,2.36,-0.296
4.544e-03,2.4,-0.352
4.560e-03,2.32,-0.4
4.576e-03,2.28,-0.456
4.592e-03,2.28,-0.512
4.608e-03,2.2,-0.568
4.624e-03,2.08,-0.616
4.640e-03,1.96,-0.656
4.656e-03,1.76,-0.696
4.672e-03,1.6,-0.736
4.688e-03,1.4,-0.76
4.704e-03,1.12,-0.784
4.720e-03,0.8,-0.792
4.736e-03,0.52,-0.8
4.752e-03,0.2,-0.792
4.768e-03,-0.12,-0.776
4.784e-03,-0.44,-0.752
4.800e-03,-0.72,-0.72
4.816e-03,-0.96,-0.68
4.832e-03,-1.16,-0.64
4.848e-03,-1.32,-0.6
4.864e-03,-1.4,-0.552
4.880e-03,-1.44,-0.504
4.896e-03,-1.44,-0.464
4.912e-03,-1.4,-0.416
4.928e-03,-1.32,-0.376
4.944e-03,-1.2,-0.352
4.960e-03,-1.08,-0.32
4.976e-03,-0.92,-0.288
4.992e-03,-0.76,-0.272
5.008e-03,-0.6,-0.256
5.024e-03,-0.52,-0.24
5.040e-03,-0.4,-0.224
5.056e-03,-0.24,-0.216
5.072e-03,-0.08,-0.216
5.088e-03,0,-0.192
5.104e-03,0.12,-0.184
5.120e-03,0.2,-0.184
5.136e-03,0.36,-0.168
5.152e-03,0.44,-0.16
5.168e-03,0.48,-0.152
5.184e-03,0.6,-0.144
5.200e-03,0.68,-0.136
5.216e-03,0.76,-0.128
5.232e-03,0.8,-0.12
5.248e-03,0.88,-0.112
5.264e-03,0.96,-0.096
5.280e-03,0.96,-0.088
5.296e-03,1.08,-0.08
5.312e-03,1.12,-0.072
5.328e-03,1.2,-0.072
5.344e-03,1.2,-0.056
5.360e-03,1.24,-0.048
5.376e-03,1.28,-0.048
5.392e-03,1.32,-0.04
5.408e-03,1.32,-0.048
5.424e-03,1.36,-0.04
5.440e-03,1.4,-0.04
5.456e-03,1.4,-0.04
5.472e-03,1.4,-0.048
5.488e-03,1.44,-0.056
5.504e-03,1.48,-0.064
5.520e-03,1.48,-0.08
5.536e-03,1.52,-0.088
5.552e-03,1.56,-0.104
5.568e-03,1.56,-0.12
5.584e-03,1.56,-0.152
5.600e-03,1.64,-0.176
5.616e-03,1.68,-0.208
5.632e-03,1.76,-0.24
5.648e-03,1.76,-0.28
5.664e-03,1.8,-0.312
5.680e-03,1.92,-0.368
5.696e-03,2,-0.408
5.712e-03,2.04,-0.456
5.728e-03,2.08,-0.504
5.744e-03,2.2,-0.568
5.760e-03,2.28,-0.624
5.776e-03,2.28,-0.68
5.792e-03,2.32,-0.744
5.808e-03,2.36,-0.8
5.824e-03,2.32,-0.864
5.840e-03,2.24,-0.92
5.856e-03,2.12,-0.968
5.872e-03,1.92,-1
5.888e-03,1.68,-1.016
5.904e-03,1.32,-1.016
5.920e-03,0.96,-1.016
5.936e-03,0.56,-1.016
5.952e-03,0.12,-1.016
5.968e-03,-0.24,-1.008
5.984e-03,-0.64,-0.968
6.000e-03,-0.92,-0.912
6.016e-03,-1.16,-0.856
6.032e-03,-1.32,-0.792
6.048e-03,-1.36,-0.728
6.064e-03,-1.32,-0.664
6.080e-03,-1.16,-0.6
6.096e-03,-1,-0.552
6.112e-03,-0.84,-0.504
6.128e-03,-0.56,-0.472
6.144e-03,-0.28,-0.44
6.160e-03,-0.04,-0.424
6.176e-03,0.16,-0.408
6.192e-03,0.4,-0.4
6.208e-03,0.68,-0.4
6.224e-03,0.88,-0.392
6.240e-03,1.08,-0.4
6.256e-03,1.24,-0.408
6.272e-03,1.44,-0.416
6.288e-03,1.6,-0.416
6.304e-03,1.72,-0.432
6.320e-03,1.84,-0.44
6.336e-03,2.04,-0.448
6.352e-03,2.12,-0.464
6.368e-03,2.2,-0.472
6.384e-03,2.28,-0.488
6.400e-03,2.32,-0.496
6.416e-03,2.36,-0.504
6.432e-03,2.36,-0.504
6.448e-03,2.36,-0.512
6.464e-03,2.36,-0.512
6.480e-03,2.28,-0.512
6.496e-03,2.16,-0.512
6.512e-03,2.08,-0.504
6.528e-03,1.96,-0.488
6.544e-03,1.84,-0.48
6.560e-03,1.64,-0.464
6.576e-03,1.4,-0.432
6.592e-03,1.2,-0.408
6.608e-03,1,-0.384
6.624e-03,0.76,-0.344
6.640e-03,0.6,-0.32
6.656e-03,0.4,-0.272
6.672e-03,0.28,-0.248
6.688e-03,0.04,-0.2
6.704e-03,-0.12,-0.16
6.720e-03,-0.16,-0.128
6.736e-03,-0.28,-0.104
6.752e-03,-0.44,-0.064
6.768e-03,-0.48,-0.04
6.784e-03,-0.56,-0.016
6.800e-03,-0.6,0
6.816e-03,-0.64,0.008
6.832e-03,-0.68,0.024
6.848e-03,-0.64,0.032
6.864e-03,-0.68,0.032
6.880e-03,-0.68,0.04
6.896e-03,-0.64,0.032
6.912e-03,-0.64,0.024
6.928e-03,-0.64,0.016
6.944e-03,-0.6,0
6.960e-03,-0.6,-0.016
6.976e-03,-0.6,-0.024
6.992e-03,-0.6,-0.04
7.008e-03,-0.6,-0.064
7.024e-03,-0.56,-0.08
7.040e-03,-0.6,-0.104
7.056e-03,-0.64,-0.112
7.072e-03,-0.68,-0.12
7.088e-03,-0.68,-0.136
7.104e-03,-0.72,-0.152
7.120e-03,-0.8,-0.152
7.136e-03,-0.76,-0.152
7.152e-03,-0.8,-0.152
7.168e-03,-0.92,-0.144
7.184e-03,-0.96,-0.136
7.200e-03,-1,-0.12
7.216e-03,-1.04,-0.104
7.232e-03,-1.12,-0.096
7.248e-03,-1.12,-0.064
7.264e-03,-1.16,-0.04
7.280e-03,-1.2,-0.008
7.296e-03,-1.2,0.016
7.312e-03,-1.24,0.056
7.328e-03,-1.24,0.088
7.344e-03,-1.24,0.128
7.360e-03,-1.24,0.168
7.376e-03,-1.24,0.208
7.392e-03,-1.2,0.248
7.408e-03,-1.2,0.296
7.424e-03,-1.16,0.336
7.440e-03,-1.08,0.376
7.456e-03,-1,0.408
7.472e-03,-0.96,0.448
7.488e-03,-0.84,0.48
7.504e-03,-0.68,0.512
7.520e-03,-0.52,0.536
7.536e-03,-0.36,0.552
7.552e-03,-0.16,0.568
7.568e-03,0.04,0.576
7.584e-03,0.24,0.576
7.600e-03,0.52,0.56
7.616e-03,0.76,0.552
7.632e-03,0.96,0.528
7.648e-03,1.24,0.496
7.664e-03,1.48,0.456
7.680e-03,1.68,0.408
7.696e-03,1.84,0.36
7.712e-03,2,0.304
7.728e-03,2.12,0.248
7.744e-03,2.2,0.192
7.760e-03,2.32,0.136
7.776e-03,2.36,0.08
7.792e-03,2.36,0.008
7.808e-03,2.4,-0.048
7.824e-03,2.44,-0.112
7.840e-03,2.44,-0.168
7.856e-03,2.4,-0.232
7.872e-03,2.4,-0.296
7.888e-03,2.4,-0.352
7.904e-03,2.4,-0.408
7.920e-03,2.32,-0.472
7.936e-03,2.28,-0.528
7.952e-03,2.24,-0.584
7.968e-03,2.16,-0.632
7.984e-03,2.04,-0.68
8.000e-03,1.88,-0.728
8.016e-03,1.68,-0.768
8.032e-03,1.52,-0.8
8.048e-03,1.24,-0.824
8.064e-03,0.92,-0.84
8.080e-03,0.6,-0.84
8.096e-03,0.28,-0.84
8.112e-03,-0.04,-0.824
8.128e-03,-0.4,-0.8
8.144e-03,-0.72,-0.768
8.160e-03,-0.92,-0.72
8.176e-03,-1.16,-0.68
8.192e-03,-1.32,-0.632
8.208e-03,-1.4,-0.584
8.224e-03,-1.44,-0.536
8.240e-03,-1.4,-0.488
8.256e-03,-1.36,-0.44
8.272e-03,-1.28,-0.408
8.288e-03,-1.08,-0.368
8.304e-03,-0.92,-0.344
8.320e-03,-0.8,-0.312
8.336e-03,-0.64,-0.296
8.352e-03,-0.44,-0.28
8.368e-03,-0.32,-0.264
8.384e-03,-0.16,-0.256
8.400e-03,-0.04,-0.248
8.416e-03,0.12,-0.24
8.432e-03,0.24,-0.232
8.448e-03,0.36,-0.232
8.464e-03,0.48,-0.224
8.480e-03,0.6,-0.216
8.496e-03,0.72,-0.216
8.512e-03,0.8,-0.216
8.528e-03,0.92,-0.208
8.544e-03,1.04,-0.2
8.560e-03,1.12,-0.2
8.576e-03,1.2,-0.2
8.592e-03,1.32,-0.2
8.608e-03,1.4,-0.192
8.624e-03,1.48,-0.192
8.640e-03,1.52,-0.192
8.656e-03,1.64,-0.192
8.672e-03,1.68,-0.192
8.688e-03,1.76,-0.192
8.704e-03,1.84,-0.2
8.720e-03,1.92,-0.208
8.736e-03,1.96,-0.216
8.752e-03,2.04,-0.224
8.768e-03,2.08,-0.232
8.784e-03,2.12,-0.248
8.800e-03,2.16,-0.264
8.816e-03,2.2,-0.28
8.832e-03,2.28,-0.304
8.848e-03,2.32,-0.32
8.864e-03,2.36,-0.352
8.880e-03,2.36,-0.376
8.896e-03,2.36,-0.4
8.912e-03,2.4,-0.432
8.928e-03,2.4,-0.464
8.944e-03,2.32,-0.496
8.960e-03,2.32,-0.528
8.976e-03,2.32,-0.568
8.992e-03,2.16,-0.6
9.008e-03,2.04,-0.632
9.024e-03,1.92,-0.656
9.040e-03,1.76,-0.688
9.056e-03,1.56,-0.704
9.072e-03,1.28,-0.72
9.088e-03,1.04,-0.728
9.104e-03,0.76,-0.728
9.120e-03,0.44,-0.72
9.136e-03,0.12,-0.712
9.152e-03,-0.16,-0.688
9.168e-03,-0.44,-0.664
9.184e-03,-0.76,-0.632
9.200e-03,-0.96,-0.6
9.216e-03,-1.16,-0.552
9.232e-03,-1.28,-0.512
9.248e-03,-1.36,-0.472
9.264e-03,-1.48,-0.432
9.280e-03,-1.48,-0.392
9.296e-03,-1.44,-0.36
9.312e-03,-1.4,-0.328
9.328e-03,-1.32,-0.296
9.344e-03,-1.28,-0.28
9.360e-03,-1.16,-0.256
9.376e-03,-1.04,-0.232
9.392e-03,-0.96,-0.216
9.408e-03,-0.88,-0.208
9.424e-03,-0.76,-0.2
9.440e-03,-0.64,-0.192
9.456e-03,-0.56,-0.176
9.472e-03,-0.48,-0.168
9.488e-03,-0.4,-0.152
9.504e-03,-0.32,-0.144
9.520e-03,-0.24,-0.136
9.536e-03,-0.2,-0.12
9.552e-03,-0.08,-0.112
9.568e-03,-0.04,-0.104
9.584e-03,0,-0.088
9.600e-03,0.08,-0.072
9.616e-03,0.12,-0.056
9.632e-03,0.2,-0.04
9.648e-03,0.2,-0.024
9.664e-03,0.28,-0.008
9.680e-03,0.32,0.008
9.696e-03,0.32,0.024
9.712e-03,0.36,0.048
9.728e-03,0.36,0.064
9.744e-03,0.36,0.088
9.760e-03,0.32,0.112
9.776e-03,0.36,0.136
9.792e-03,0.32,0.16
9.808e-03,0.28,0.184
9.824e-03,0.24,0.208
9.840e-03,0.16,0.232
9.856e-03,0.12,0.264
9.872e-03,0,0.28
9.888e-03,-0.08,0.304
9.904e-03,-0.12,0.328
9.920e-03,-0.28,0.36
9.936e-03,-0.4,0.392
9.952e-03,-0.48,0.408
9.968e-03,-0.6,0.432
9.984e-03,-0.72,0.456
1.000e-02,-0.88,0.496
1.002e-02,-1,0.512
1.003e-02,-1.08,0.536
1.005e-02,-1.2,0.56
1.006e-02,-1.32,0.576
1.008e-02,-1.36,0.592
1.010e-02,-1.4,0.608
1.011e-02,-1.44,0.616
1.013e-02,-1.4,0.624
1.014e-02,-1.36,0.624
1.016e-02,-1.28,0.624
1.018e-02,-1.16,0.6
1.019e-02,-0.96,0.584
1.021e-02,-0.8,0.552
1.022e-02,-0.6,0.512
1.024e-02,-0.32,0.464
1.026e-02,-0.12,0.408
1.027e-02,0.08,0.352
1.029e-02,0.36,0.28
1.030e-02,0.6,0.208
1.032e-02,0.72,0.128
1.034e-02,0.88,0.048
1.035e-02,1.08,-0.032
1.037e-02,1.16,-0.112
1.038e-02,1.2,-0.192
1.040e-02,1.24,-0.264
1.042e-02,1.28,-0.336
1.043e-02,1.2,-0.4
1.045e-02,1.12,-0.448
1.046e-02,1.04,-0.496
1.048e-02,0.92,-0.536
1.050e-02,0.72,-0.56
1.051e-02,0.48,-0.584
1.053e-02,0.28,-0.584
1.054e-02,0.08,-0.576
1.056e-02,-0.16,-0.56
1.058e-02,-0.4,-0.536
1.059e-02,-0.6,-0.496
1.061e-02,-0.8,-0.448
1.062e-02,-0.96,-0.408
1.064e-02,-1.16,-0.344
1.066e-02,-1.28,-0.28
1.067e-02,-1.36,-0.216
1.069e-02,-1.4,-0.152
1.070e-02,-1.48,-0.072
1.072e-02,-1.52,-0.008
1.074e-02,-1.52,0.056
1.075e-02,-1.52,0.128
1.077e-02,-1.52,0.192
1.078e-02,-1.48,0.264
1.080e-02,-1.48,0.328
1.082e-02,-1.48,0.384
1.083e-02,-1.48,0.448
1.085e-02,-1.44,0.504
1.086e-02,-1.44,0.56
1.088e-02,-1.4,0.616
1.090e-02,-1.32,0.656
1.091e-02,-1.2,0.704
1.093e-02,-1.08,0.736
1.094e-02,-0.92,0.76
1.096e-02,-0.68,0.792
1.098e-02,-0.48,0.8
1.099e-02,-0.2,0.792
1.101e-02,0.12,0.792
1.102e-02,0.44,0.76
1.104e-02,0.8,0.728
1.106e-02,1.16,0.68
1.107e-02,1.44,0.624
1.109e-02,1.68,0.56
1.110e-02,1.96,0.488
1.112e-02,2.12,0.408
1.114e-02,2.28,0.328
1.115e-02,2.4,0.24
1.117e-02,2.4,0.16
1.118e-02,2.48,0.072
1.120e-02,2.44,-0.008
1.122e-02,2.44,-0.08
1.123e-02,2.4,-0.16
1.125e-02,2.4,-0.24
1.126e-02,2.4,-0.312
1.128e-02,2.4,-0.384
1.130e-02,2.4,-0.456
1.131e-02,2.4,-0.528
1.133e-02,2.36,-0.6
1.134e-02,2.36,-0.664
1.136e-02,2.32,-0.728
1.138e-02,2.28,-0.792
1.139e-02,2.12,-0.848
1.141e-02,2.04,-0.896
1.142e-02,1.84,-0.936
1.144e-02,1.56,-0.968
1.146e-02,1.28,-0.992
1.147e-02,0.92,-1.008
1.149e-02,0.52,-1
1.150e-02,0.16,-0.984
1.152e-02,-0.24,-0.96
1.154e-02,-0.6,-0.92
1.155e-02,-0.92,-0.872
1.157e-02,-1.12,-0.816
1.158e-02,-1.32,-0.76
1.160e-02,-1.4,-0.696
1.162e-02,-1.36,-0.632
1.163e-02,-1.28,-0.576
1.165e-02,-1.12,-0.52
1.166e-02,-1,-0.472
1.168e-02,-0.76,-0.432
1.170e-02,-0.52,-0.4
1.171e-02,-0.32,-0.376
1.173e-02,-0.08,-0.36
1.174e-02,0.08,-0.344
1.176e-02,0.32,-0.328
1.178e-02,0.52,-0.336
1.179e-02,0.68,-0.32
1.181e-02,0.84,-0.32
1.182e-02,1.04,-0.32
1.184e-02,1.2,-0.328
1.186e-02,1.32,-0.328
1.187e-02,1.44,-0.328
1.189e-02,1.6,-0.336
1.190e-02,1.68,-0.344
1.192e-02,1.8,-0.36
1.194e-02,1.88,-0.36
1.195e-02,2.04,-0.36
1.197e-02,2.08,-0.376
1.198e-02,2.16,-0.376
1.200e-02,2.24,-0.384
1.202e-02,2.36,-0.392
1.203e-02,2.36,-0.4
1.205e-02,2.36,-0.408
1.206e-02,2.4,-0.416
1.208e-02,2.4,-0.424
1.210e-02,2.4,-0.44
1.211e-02,2.32,-0.44
1.213e-02,2.28,-0.448
1.214e-02,2.16,-0.456
1.216e-02,2.08,-0.456
1.218e-02,1.96,-0.456
1.219e-02,1.8,-0.456
1.221e-02,1.68,-0.456
1.222e-02,1.52,-0.448
1.224e-02,1.32,-0.44
1.226e-02,1.12,-0.432
1.227e-02,0.96,-0.416
1.229e-02,0.76,-0.4
1.230e-02,0.56,-0.384
1.232e-02,0.32,-0.368
1.234e-02,0.16,-0.344
1.235e-02,-0.04,-0.328
1.237e-02,-0.24,-0.304
1.238e-02,-0.36,-0.28
1.240e-02,-0.48,-0.256
1.242e-02,-0.68,-0.24
1.243e-02,-0.76,-0.216
1.245e-02,-0.88,-0.192
1.246e-02,-0.92,-0.176
1.248e-02,-1.04,-0.16
1.250e-02,-1.12,-0.144
1.251e-02,-1.16,-0.128
1.253e-02,-1.2,-0.112
1.254e-02,-1.24,-0.104
1.256e-02,-1.28,-0.096
1.258e-02,-1.28,-0.088
1.259e-02,-1.32,-0.072
1.261e-02,-1.36,-0.064
1.262e-02,-1.36,-0.056
1.264e-02,-1.36,-0.048
1.266e-02,-1.36,-0.04
1.267e-02,-1.4,-0.032
1.269e-02,-1.4,-0.016
1.270e-02,-1.4,-0.008
1.272e-02,-1.4,0
1.274e-02,-1.44,0.008
1.275e-02,-1.4,0.024
1.277e-02,-1.4,0.048
1.278e-02,-1.44,0.064
1.280e-02,-1.44,0.088
1.282e-02,-1.4,0.112
1.283e-02,-1.4,0.136
1.285e-02,-1.4,0.168
1.286e-02,-1.4,0.2
1.288e-02,-1.36,0.232
1.290e-02,-1.36,0.264
1.291e-02,-1.32,0.296
1.293e-02,-1.28,0.328
1.294e-02,-1.24,0.36
1.296e-02,-1.2,0.4
1.298e-02,-1.12,0.432
1.299e-02,-1.04,0.456
1.301e-02,-0.92,0.488
1.302e-02,-0.8,0.52
1.304e-02,-0.68,0.536
1.306e-02,-0.44,0.56
1.307e-02,-0.32,0.568
1.309e-02,-0.08,0.576
1.310e-02,0.16,0.576
1.312e-02,0.36,0.568
1.314e-02,0.64,0.552
1.315e-02,0.88,0.536
1.317e-02,1.16,0.512
1.318e-02,1.36,0.472
1.320e-02,1.6,0.432
1.322e-02,1.76,0.392
1.323e-02,1.92,0.336
1.325e-02,2.04,0.288
1.326e-02,2.2,0.232
1.328e-02,2.32,0.176
1.330e-02,2.32,0.12
1.331e-02,2.36,0.064
1.333e-02,2.4,0
1.334e-02,2.4,-0.048
1.336e-02,2.44,-0.112
1.338e-02,2.44,-0.16
1.339e-02,2.44,-0.216
1.341e-02,2.44,-0.272
1.342e-02,2.4,-0.336
1.344e-02,2.4,-0.384
1.346e-02,2.4,-0.44
1.347e-02,2.32,-0.496
1.349e-02,2.24,-0.552
1.350e-02,2.2,-0.6
1.352e-02,2.08,-0.648
1.354e-02,1.96,-0.696
1.355e-02,1.76,-0.736
1.357e-02,1.6,-0.776
1.358e-02,1.36,-0.792
1.360e-02,1.12,-0.808
1.362e-02,0.76,-0.824
1.363e-02,0.44,-0.824
1.365e-02,0.12,-0.816
1.366e-02,-0.24,-0.8
1.368e-02,-0.52,-0.768
1.370e-02,-0.8,-0.736
1.371e-02,-1.04,-0.696
1.373e-02,-1.24,-0.648
1.374e-02,-1.36,-0.6
1.376e-02,-1.4,-0.552
1.378e-02,-1.4,-0.512
1.379e-02,-1.36,-0.456
1.381e-02,-1.32,-0.416
1.382e-02,-1.24,-0.384
1.384e-02,-1.08,-0.352
1.386e-02,-0.92,-0.328
1.387e-02,-0.8,-0.304
1.389e-02,-0.64,-0.28
1.390e-02,-0.48,-0.264
1.392e-02,-0.32,-0.256
1.394e-02,-0.2,-0.24
1.395e-02,-0.08,-0.232
1.397e-02,0.08,-0.232
1.398e-02,0.2,-0.224
1.400e-02,0.32,-0.216
1.402e-02,0.4,-0.216
1.403e-02,0.56,-0.208
1.405e-02,0.64,-0.208
1.406e-02,0.72,-0.2
1.408e-02,0.8,-0.192
1.410e-02,0.96,-0.192
1.411e-02,1.04,-0.184
1.413e-02,1.12,-0.184
1.414e-02,1.2,-0.176
1.416e-02,1.32,-0.176
1.418e-02,1.36,-0.168
1.419e-02,1.44,-0.168
1.421e-02,1.56,-0.168
1.422e-02,1.6,-0.168
1.424e-02,1.68,-0.168
1.426e-02,1.68,-0.168
1.427e-02,1.8,-0.176
1.429e-02,1.88,-0.184
1.430e-02,1.88,-0.184
1.432e-02,1.96,-0.2
1.434e-02,2,-0.208
1.435e-02,2.08,-0.232
1.437e-02,2.08,-0.24
1.438e-02,2.16,-0.264
1.440e-02,2.2,-0.28
1.442e-02,2.24,-0.304
1.443e-02,2.32,-0.328
1.445e-02,2.28,-0.368
1.446e-02,2.36,-0.392
1.448e-02,2.36,-0.416
1.450e-02,2.36,-0.456
1.451e-02,2.36,-0.496
1.453e-02,2.36,-0.536
1.454e-02,2.36,-0.568
1.456e-02,2.28,-0.608
1.458e-02,2.2,-0.648
1.459e-02,2.08,-0.68
1.461e-02,1.92,-0.712
1.462e-02,1.68,-0.736
1.464e-02,1.48,-0.76
1.466e-02,1.24,-0.776
1.467e-02,0.92,-0.784
1.469e-02,0.6,-0.784
1.470e-02,0.28,-0.776
1.472e-02,-0.04,-0.76
1.474e-02,-0.36,-0.728
1.475e-02,-0.64,-0.696
1.477e-02,-0.92,-0.664
1.478e-02,-1.12,-0.624
1.480e-02,-1.28,-0.576
1.482e-02,-1.4,-0.536
1.483e-02,-1.44,-0.488
1.485e-02,-1.44,-0.448
1.486e-02,-1.4,-0.408
1.488e-02,-1.36,-0.376
1.490e-02,-1.28,-0.344
1.491e-02,-1.16,-0.32
1.493e-02,-1.04,-0.296
1.494e-02,-0.92,-0.28
1.496e-02,-0.8,-0.264
1.498e-02,-0.64,-0.248
1.499e-02,-0.48,-0.24
1.501e-02,-0.4,-0.232
1.502e-02,-0.28,-0.24
1.504e-02,-0.12,-0.224
1.506e-02,-0.04,-0.216
1.507e-02,0.08,-0.216
1.509e-02,0.16,-0.208
1.510e-02,0.28,-0.208
1.512e-02,0.36,-0.2
1.514e-02,0.48,-0.2
1.515e-02,0.56,-0.2
1.517e-02,0.68,-0.192
1.518e-02,0.8,-0.184
1.520e-02,0.88,-0.176
1.522e-02,0.96,-0.176
1.523e-02,1.08,-0.168
1.525e-02,1.16,-0.168
1.526e-02,1.2,-0.16
1.528e-02,1.28,-0.16
1.530e-02,1.4,-0.16
1.531e-02,1.44,-0.152
1.533e-02,1.48,-0.152
1.534e-02,1.56,-0.152
1.536e-02,1.64,-0.152
1.538e-02,1.72,-0.152
1.539e-02,1.76,-0.16
1.541e-02,1.8,-0.16
1.542e-02,1.88,-0.168
1.544e-02,1.92,-0.184
1.546e-02,1.96,-0.192
1.547e-02,2.04,-0.208
1.549e-02,2.04,-0.232
1.550e-02,2.08,-0.24
1.552e-02,2.16,-0.264
1.554e-02,2.2,-0.288
1.555e-02,2.24,-0.32
1.557e-02,2.28,-0.344
1.558e-02,2.32,-0.376
1.560e-02,2.36,-0.416
1.562e-02,2.36,-0.448
1.563e-02,2.36,-0.488
1.565e-02,2.4,-0.536
1.566e-02,2.36,-0.576
1.568e-02,2.32,-0.616
1.570e-02,2.28,-0.656
1.571e-02,2.12,-0.696
1.573e-02,2,-0.736
1.574e-02,1.84,-0.768
1.576e-02,1.6,-0.792
1.578e-02,1.32,-0.808
1.579e-02,1.08,-0.824
1.581e-02,0.76,-0.824
1.582e-02,0.4,-0.816
1.584e-02,0.08,-0.808
1.586e-02,-0.28,-0.784
1.587e-02,-0.56,-0.752
1.589e-02,-0.88,-0.712
1.590e-02,-1.08,-0.672
1.592e-02,-1.24,-0.624
1.594e-02,-1.36,-0.576
1.595e-02,-1.44,-0.528
1.597e-02,-1.44,-0.48
1.598e-02,-1.4,-0.448

