Model,TBS2102B
Firmware Version,v1.31.14

Point Format,Y,
Horizontal Units,S,
Horizontal Scale,0.002,
Sample Interval,1.6e-05,
Filter Frequency,2e+08,
Record Length,2000,
Gating,0.0% to 100.0%,0.0% to 100.0%
Probe Attenuation,1,1
Vertical Units,V,V
Vertical Offset,0,0
Vertical Scale,1,0.2
Label,,
TIME,CH1,CH2
-1.600e-02,1.76,-0.784
-1.598e-02,1.56,-0.824
-1.597e-02,1.32,-0.856
-1.595e-02,1.04,-0.872
-1.594e-02,0.72,-0.88
-1.592e-02,0.36,-0.872
-1.590e-02,0,-0.864
-1.589e-02,-0.32,-0.84
-1.587e-02,-0.6,-0.808
-1.586e-02,-0.92,-0.776
-1.584e-02,-1.12,-0.728
-1.582e-02,-1.28,-0.68
-1.581e-02,-1.4,-0.632
-1.579e-02,-1.44,-0.576
-1.578e-02,-1.4,-0.536
-1.576e-02,-1.32,-0.488
-1.574e-02,-1.2,-0.448
-1.573e-02,-1.04,-0.416
-1.571e-02,-0.88,-0.384
-1.570e-02,-0.64,-0.368
-1.568e-02,-0.44,-0.344
-1.566e-02,-0.32,-0.336
-1.565e-02,-0.08,-0.32
-1.563e-02,0.08,-0.32
-1.562e-02,0.24,-0.32
-1.560e-02,0.36,-0.312
-1.558e-02,0.52,-0.312
-1.557e-02,0.72,-0.312
-1.555e-02,0.84,-0.32
-1.554e-02,1,-0.312
-1.552e-02,1.16,-0.32
-1.550e-02,1.28,-0.32
-1.549e-02,1.4,-0.328
-1.547e-02,1.52,-0.328
-1.546e-02,1.64,-0.336
-1.544e-02,1.8,-0.336
-1.542e-02,1.88,-0.344
-1.541e-02,1.96,-0.352
-1.539e-02,2.04,-0.352
-1.538e-02,2.16,-0.36
-1.536e-02,2.2,-0.368
-1.534e-02,2.28,-0.376
-1.533e-02,2.32,-0.384
-1.531e-02,2.36,-0.392
-1.530e-02,2.4,-0.4
-1.528e-02,2.4,-0.408
-1.526e-02,2.4,-0.416
-1.525e-02,2.36,-0.424
-1.523e-02,2.36,-0.424
-1.522e-02,2.24,-0.432
-1.520e-02,2.2,-0.432
-1.518e-02,2.08,-0.44
-1.517e-02,1.96,-0.44
-1.515e-02,1.8,-0.448
-1.514e-02,1.68,-0.44
-1.512e-02,1.52,-0.432
-1.510e-02,1.36,-0.424
-1.509e-02,1.16,-0.416
-1.507e-02,1,-0.416
-1.506e-02,0.8,-0.392
-1.504e-02,0.56,-0.384
-1.502e-02,0.36,-0.368
-1.501e-02,0.16,-0.352
-1.499e-02,0,-0.328
-1.498e-02,-0.16,-0.312
-1.496e-02,-0.32,-0.288
-1.494e-02,-0.44,-0.28
-1.493e-02,-0.56,-0.248
-1.491e-02,-0.72,-0.232
-1.490e-02,-0.84,-0.216
-1.488e-02,-0.96,-0.208
-1.486e-02,-1,-0.184
-1.485e-02,-1.12,-0.168
-1.483e-02,-1.16,-0.16
-1.482e-02,-1.2,-0.144
-1.480e-02,-1.24,-0.136
-1.478e-02,-1.32,-0.12
-1.477e-02,-1.32,-0.112
-1.475e-02,-1.32,-0.104
-1.474e-02,-1.36,-0.096
-1.472e-02,-1.4,-0.088
-1.470e-02,-1.4,-0.08
-1.469e-02,-1.4,-0.064
-1.467e-02,-1.44,-0.056
-1.466e-02,-1.44,-0.04
-1.464e-02,-1.44,-0.032
-1.462e-02,-1.44,-0.024
-1.461e-02,-1.44,0
-1.459e-02,-1.48,0.016
-1.458e-02,-1.44,0.032
-1.456e-02,-1.44,0.056
-1.454e-02,-1.48,0.08
-1.453e-02,-1.44,0.12
-1.451e-02,-1.44,0.136
-1.450e-02,-1.44,0.168
-1.448e-02,-1.44,0.2
-1.446e-02,-1.44,0.232
-1.445e-02,-1.4,0.272
-1.443e-02,-1.44,0.304
-1.442e-02,-1.36,0.344
-1.440e-02,-1.32,0.384
-1.438e-02,-1.28,0.424
-1.437e-02,-1.24,0.456
-1.435e-02,-1.16,0.496
-1.434e-02,-1.04,0.528
-1.432e-02,-0.96,0.56
-1.430e-02,-0.8,0.584
-1.429e-02,-0.6,0.608
-1.427e-02,-0.4,0.624
-1.426e-02,-0.2,0.632
-1.424e-02,0.04,0.64
-1.422e-02,0.32,0.632
-1.421e-02,0.56,0.616
-1.419e-02,0.88,0.6
-1.418e-02,1.12,0.568
-1.416e-02,1.4,0.536
-1.414e-02,1.6,0.488
-1.413e-02,1.84,0.44
-1.411e-02,2,0.384
-1.410e-02,2.12,0.328
-1.408e-02,2.28,0.272
-1.406e-02,2.36,0.208
-1.405e-02,2.36,0.152
-1.403e-02,2.4,0.088
-1.402e-02,2.44,0.024
-1.400e-02,2.48,-0.032
-1.398e-02,2.48,-0.088
-1.397e-02,2.48,-0.144
-1.395e-02,2.44,-0.216
-1.394e-02,2.44,-0.264
-1.392e-02,2.4,-0.328
-1.390e-02,2.44,-0.384
-1.389e-02,2.44,-0.44
-1.387e-02,2.4,-0.496
-1.386e-02,2.36,-0.56
-1.384e-02,2.32,-0.616
-1.382e-02,2.24,-0.664
-1.381e-02,2.12,-0.72
-1.379e-02,2,-0.768
-1.378e-02,1.84,-0.808
-1.376e-02,1.64,-0.848
-1.374e-02,1.36,-0.872
-1.373e-02,1.04,-0.888
-1.371e-02,0.68,-0.896
-1.370e-02,0.36,-0.896
-1.368e-02,0,-0.88
-1.366e-02,-0.32,-0.856
-1.365e-02,-0.64,-0.824
-1.363e-02,-0.96,-0.792
-1.362e-02,-1.16,-0.736
-1.360e-02,-1.28,-0.688
-1.358e-02,-1.4,-0.632
-1.357e-02,-1.4,-0.584
-1.355e-02,-1.36,-0.536
-1.354e-02,-1.28,-0.496
-1.352e-02,-1.16,-0.456
-1.350e-02,-1,-0.424
-1.349e-02,-0.8,-0.392
-1.347e-02,-0.6,-0.376
-1.346e-02,-0.44,-0.368
-1.344e-02,-0.2,-0.344
-1.342e-02,0,-0.336
-1.341e-02,0.16,-0.336
-1.339e-02,0.32,-0.328
-1.338e-02,0.48,-0.328
-1.336e-02,0.68,-0.336
-1.334e-02,0.84,-0.336
-1.333e-02,0.96,-0.336
-1.331e-02,1.16,-0.344
-1.330e-02,1.32,-0.36
-1.328e-02,1.44,-0.352
-1.326e-02,1.56,-0.36
-1.325e-02,1.68,-0.368
-1.323e-02,1.84,-0.376
-1.322e-02,1.92,-0.384
-1.320e-02,2.04,-0.4
-1.318e-02,2.12,-0.4
-1.317e-02,2.2,-0.408
-1.315e-02,2.28,-0.408
-1.314e-02,2.32,-0.416
-1.312e-02,2.36,-0.424
-1.310e-02,2.4,-0.432
-1.309e-02,2.4,-0.44
-1.307e-02,2.36,-0.44
-1.306e-02,2.4,-0.448
-1.304e-02,2.28,-0.448
-1.302e-02,2.2,-0.448
-1.301e-02,2.12,-0.448
-1.299e-02,2,-0.44
-1.298e-02,1.88,-0.432
-1.296e-02,1.72,-0.424
-1.294e-02,1.6,-0.416
-1.293e-02,1.4,-0.408
-1.291e-02,1.24,-0.392
-1.290e-02,1,-0.376
-1.288e-02,0.84,-0.352
-1.286e-02,0.68,-0.336
-1.285e-02,0.48,-0.312
-1.283e-02,0.28,-0.288
-1.282e-02,0.12,-0.264
-1.280e-02,0,-0.24
-1.278e-02,-0.16,-0.224
-1.277e-02,-0.28,-0.2
-1.275e-02,-0.44,-0.184
-1.274e-02,-0.52,-0.168
-1.272e-02,-0.6,-0.144
-1.270e-02,-0.72,-0.128
-1.269e-02,-0.8,-0.12
-1.267e-02,-0.8,-0.112
-1.266e-02,-0.88,-0.104
-1.264e-02,-0.92,-0.096
-1.262e-02,-1,-0.088
-1.261e-02,-1,-0.088
-1.259e-02,-1.04,-0.088
-1.258e-02,-1.12,-0.088
-1.256e-02,-1.12,-0.088
-1.254e-02,-1.16,-0.088
-1.253e-02,-1.16,-0.088
-1.251e-02,-1.2,-0.088
-1.250e-02,-1.2,-0.088
-1.248e-02,-1.2,-0.08
-1.246e-02,-1.24,-0.072
-1.245e-02,-1.28,-0.072
-1.243e-02,-1.28,-0.064
-1.242e-02,-1.28,-0.048
-1.240e-02,-1.32,-0.048
-1.238e-02,-1.32,-0.024
-1.237e-02,-1.36,-0.008
-1.235e-02,-1.36,0.008
-1.234e-02,-1.4,0.024
-1.232e-02,-1.36,0.048
-1.230e-02,-1.32,0.08
-1.229e-02,-1.36,0.104
-1.227e-02,-1.4,0.136
-1.226e-02,-1.36,0.176
-1.224e-02,-1.32,0.208
-1.222e-02,-1.32,0.24
-1.221e-02,-1.32,0.272
-1.219e-02,-1.28,0.312
-1.218e-02,-1.24,0.352
-1.216e-02,-1.2,0.384
-1.214e-02,-1.12,0.416
-1.213e-02,-1,0.456
-1.211e-02,-0.92,0.488
-1.210e-02,-0.8,0.52
-1.208e-02,-0.6,0.544
-1.206e-02,-0.44,0.56
-1.205e-02,-0.28,0.576
-1.203e-02,-0.04,0.592
-1.202e-02,0.16,0.592
-1.200e-02,0.36,0.584
-1.198e-02,0.68,0.568
-1.197e-02,0.96,0.552
-1.195e-02,1.16,0.52
-1.194e-02,1.4,0.488
-1.192e-02,1.6,0.448
-1.190e-02,1.84,0.4
-1.189e-02,1.96,0.352
-1.187e-02,2.08,0.296
-1.186e-02,2.24,0.24
-1.184e-02,2.32,0.184
-1.182e-02,2.36,0.128
-1.181e-02,2.4,0.072
-1.179e-02,2.44,0.008
-1.178e-02,2.44,-0.048
-1.176e-02,2.44,-0.104
-1.174e-02,2.48,-0.16
-1.173e-02,2.44,-0.224
-1.171e-02,2.44,-0.28
-1.170e-02,2.44,-0.336
-1.168e-02,2.4,-0.392
-1.166e-02,2.36,-0.456
-1.165e-02,2.32,-0.512
-1.163e-02,2.28,-0.56
-1.162e-02,2.24,-0.616
-1.160e-02,2.16,-0.672
-1.158e-02,2,-0.712
-1.157e-02,1.84,-0.76
-1.155e-02,1.64,-0.8
-1.154e-02,1.44,-0.824
-1.152e-02,1.12,-0.848
-1.150e-02,0.8,-0.856
-1.149e-02,0.48,-0.856
-1.147e-02,0.12,-0.848
-1.146e-02,-0.2,-0.832
-1.144e-02,-0.52,-0.8
-1.142e-02,-0.8,-0.768
-1.141e-02,-1.04,-0.728
-1.139e-02,-1.24,-0.68
-1.138e-02,-1.4,-0.64
-1.136e-02,-1.4,-0.584
-1.134e-02,-1.4,-0.536
-1.133e-02,-1.36,-0.488
-1.131e-02,-1.28,-0.448
-1.130e-02,-1.16,-0.416
-1.128e-02,-0.96,-0.384
-1.126e-02,-0.8,-0.36
-1.125e-02,-0.68,-0.344
-1.123e-02,-0.44,-0.328
-1.122e-02,-0.24,-0.32
-1.120e-02,-0.08,-0.304
-1.118e-02,0.04,-0.296
-1.117e-02,0.24,-0.296
-1.115e-02,0.4,-0.304
-1.114e-02,0.52,-0.296
-1.112e-02,0.68,-0.304
-1.110e-02,0.84,-0.296
-1.109e-02,0.96,-0.304
-1.107e-02,1.12,-0.304
-1.106e-02,1.2,-0.304
-1.104e-02,1.36,-0.304
-1.102e-02,1.52,-0.312
-1.101e-02,1.6,-0.32
-1.099e-02,1.68,-0.312
-1.098e-02,1.8,-0.328
-1.096e-02,1.92,-0.328
-1.094e-02,2,-0.328
-1.093e-02,2.08,-0.336
-1.091e-02,2.2,-0.344
-1.090e-02,2.24,-0.352
-1.088e-02,2.28,-0.36
-1.086e-02,2.32,-0.36
-1.085e-02,2.36,-0.376
-1.083e-02,2.4,-0.384
-1.082e-02,2.4,-0.392
-1.080e-02,2.44,-0.4
-1.078e-02,2.36,-0.408
-1.077e-02,2.32,-0.416
-1.075e-02,2.24,-0.424
-1.074e-02,2.2,-0.432
-1.072e-02,2.12,-0.44
-1.070e-02,2,-0.448
-1.069e-02,1.84,-0.448
-1.067e-02,1.68,-0.456
-1.066e-02,1.56,-0.456
-1.064e-02,1.44,-0.448
-1.062e-02,1.16,-0.448
-1.061e-02,1,-0.44
-1.059e-02,0.8,-0.432
-1.058e-02,0.64,-0.424
-1.056e-02,0.36,-0.408
-1.054e-02,0.16,-0.392
-1.053e-02,0,-0.376
-1.051e-02,-0.2,-0.368
-1.050e-02,-0.4,-0.344
-1.048e-02,-0.52,-0.32
-1.046e-02,-0.68,-0.296
-1.045e-02,-0.84,-0.28
-1.043e-02,-0.92,-0.256
-1.042e-02,-1.04,-0.248
-1.040e-02,-1.12,-0.224
-1.038e-02,-1.2,-0.2
-1.037e-02,-1.28,-0.192
-1.035e-02,-1.36,-0.168
-1.034e-02,-1.36,-0.152
-1.032e-02,-1.4,-0.136
-1.030e-02,-1.44,-0.128
-1.029e-02,-1.44,-0.112
-1.027e-02,-1.44,-0.104
-1.026e-02,-1.48,-0.088
-1.024e-02,-1.48,-0.072
-1.022e-02,-1.44,-0.064
-1.021e-02,-1.48,-0.048
-1.019e-02,-1.48,-0.04
-1.018e-02,-1.48,-0.016
-1.016e-02,-1.44,0
-1.014e-02,-1.44,0.016
-1.013e-02,-1.48,0.04
-1.011e-02,-1.48,0.064
-1.010e-02,-1.44,0.088
-1.008e-02,-1.48,0.12
-1.006e-02,-1.48,0.152
-1.005e-02,-1.48,0.176
-1.003e-02,-1.48,0.208
-1.002e-02,-1.44,0.248
-1.000e-02,-1.48,0.288
-9.984e-03,-1.44,0.32
-9.968e-03,-1.4,0.36
-9.952e-03,-1.44,0.4
-9.936e-03,-1.4,0.44
-9.920e-03,-1.32,0.48
-9.904e-03,-1.28,0.52
-9.888e-03,-1.24,0.56
-9.872e-03,-1.12,0.592
-9.856e-03,-0.92,0.624
-9.840e-03,-0.8,0.656
-9.824e-03,-0.56,0.672
-9.808e-03,-0.32,0.688
-9.792e-03,-0.12,0.688
-9.776e-03,0.16,0.68
-9.760e-03,0.48,0.672
-9.744e-03,0.76,0.648
-9.728e-03,1,0.624
-9.712e-03,1.32,0.584
-9.696e-03,1.56,0.544
-9.680e-03,1.8,0.496
-9.664e-03,1.96,0.432
-9.648e-03,2.16,0.368
-9.632e-03,2.32,0.312
-9.616e-03,2.36,0.248
-9.600e-03,2.44,0.184
-9.584e-03,2.44,0.12
-9.568e-03,2.48,0.056
-9.552e-03,2.48,-0.008
-9.536e-03,2.48,-0.064
-9.520e-03,2.44,-0.128
-9.504e-03,2.4,-0.184
-9.488e-03,2.36,-0.248
-9.472e-03,2.4,-0.312
-9.456e-03,2.4,-0.368
-9.440e-03,2.4,-0.424
-9.424e-03,2.4,-0.488
-9.408e-03,2.4,-0.552
-9.392e-03,2.36,-0.608
-9.376e-03,2.28,-0.664
-9.360e-03,2.24,-0.728
-9.344e-03,2.12,-0.776
-9.328e-03,2,-0.824
-9.312e-03,1.8,-0.864
-9.296e-03,1.52,-0.896
-9.280e-03,1.32,-0.92
-9.264e-03,0.96,-0.936
-9.248e-03,0.6,-0.936
-9.232e-03,0.2,-0.928
-9.216e-03,-0.12,-0.912
-9.200e-03,-0.48,-0.88
-9.184e-03,-0.8,-0.84
-9.168e-03,-1.08,-0.792
-9.152e-03,-1.24,-0.744
-9.136e-03,-1.32,-0.688
-9.120e-03,-1.4,-0.632
-9.104e-03,-1.36,-0.584
-9.088e-03,-1.28,-0.536
-9.072e-03,-1.12,-0.496
-9.056e-03,-0.96,-0.464
-9.040e-03,-0.84,-0.424
-9.024e-03,-0.56,-0.4
-9.008e-03,-0.36,-0.384
-8.992e-03,-0.16,-0.368
-8.976e-03,0.04,-0.368
-8.960e-03,0.24,-0.36
-8.944e-03,0.48,-0.36
-8.928e-03,0.64,-0.36
-8.912e-03,0.8,-0.36
-8.896e-03,0.96,-0.368
-8.880e-03,1.16,-0.376
-8.864e-03,1.32,-0.376
-8.848e-03,1.44,-0.392
-8.832e-03,1.56,-0.4
-8.816e-03,1.72,-0.4
-8.800e-03,1.88,-0.416
-8.784e-03,1.96,-0.424
-8.768e-03,2.08,-0.432
-8.752e-03,2.16,-0.44
-8.736e-03,2.28,-0.448
-8.720e-03,2.32,-0.456
-8.704e-03,2.36,-0.464
-8.688e-03,2.44,-0.464
-8.672e-03,2.4,-0.472
-8.656e-03,2.36,-0.472
-8.640e-03,2.32,-0.48
-8.624e-03,2.28,-0.472
-8.608e-03,2.16,-0.472
-8.592e-03,2.04,-0.464
-8.576e-03,1.96,-0.448
-8.560e-03,1.76,-0.44
-8.544e-03,1.6,-0.424
-8.528e-03,1.44,-0.408
-8.512e-03,1.24,-0.384
-8.496e-03,1.04,-0.36
-8.480e-03,0.88,-0.336
-8.464e-03,0.68,-0.304
-8.448e-03,0.48,-0.272
-8.432e-03,0.32,-0.248
-8.416e-03,0.16,-0.216
-8.400e-03,0,-0.184
-8.384e-03,-0.08,-0.16
-8.368e-03,-0.2,-0.128
-8.352e-03,-0.32,-0.104
-8.336e-03,-0.4,-0.088
-8.320e-03,-0.48,-0.072
-8.304e-03,-0.52,-0.056
-8.288e-03,-0.6,-0.048
-8.272e-03,-0.64,-0.032
-8.256e-03,-0.64,-0.04
-8.240e-03,-0.68,-0.024
-8.224e-03,-0.72,-0.032
-8.208e-03,-0.72,-0.032
-8.192e-03,-0.72,-0.048
-8.176e-03,-0.76,-0.048
-8.160e-03,-0.76,-0.056
-8.144e-03,-0.8,-0.064
-8.128e-03,-0.8,-0.072
-8.112e-03,-0.8,-0.08
-8.096e-03,-0.84,-0.096
-8.080e-03,-0.88,-0.104
-8.064e-03,-0.88,-0.112
-8.048e-03,-0.92,-0.12
-8.032e-03,-0.96,-0.128
-8.016e-03,-0.96,-0.12
-8.000e-03,-1,-0.12
-7.984e-03,-1.04,-0.12
-7.968e-03,-1.12,-0.112
-7.952e-03,-1.12,-0.104
-7.936e-03,-1.16,-0.088
-7.920e-03,-1.2,-0.08
-7.904e-03,-1.2,-0.048
-7.888e-03,-1.24,-0.032
-7.872e-03,-1.24,-0.008
-7.856e-03,-1.28,0.016
-7.840e-03,-1.32,0.048
-7.824e-03,-1.28,0.08
-7.808e-03,-1.32,0.12
-7.792e-03,-1.32,0.152
-7.776e-03,-1.28,0.192
-7.760e-03,-1.28,0.232
-7.744e-03,-1.28,0.272
-7.728e-03,-1.2,0.32
-7.712e-03,-1.16,0.36
-7.696e-03,-1.12,0.4
-7.680e-03,-1.04,0.432
-7.664e-03,-0.96,0.464
-7.648e-03,-0.8,0.504
-7.632e-03,-0.72,0.528
-7.616e-03,-0.56,0.552
-7.600e-03,-0.36,0.576
-7.584e-03,-0.16,0.584
-7.568e-03,0.04,0.592
-7.552e-03,0.28,0.592
-7.536e-03,0.56,0.584
-7.520e-03,0.8,0.568
-7.504e-03,1.04,0.544
-7.488e-03,1.32,0.512
-7.472e-03,1.52,0.48
-7.456e-03,1.72,0.424
-7.440e-03,1.92,0.376
-7.424e-03,2.04,0.328
-7.408e-03,2.2,0.272
-7.392e-03,2.28,0.208
-7.376e-03,2.36,0.152
-7.360e-03,2.36,0.088
-7.344e-03,2.4,0.024
-7.328e-03,2.44,-0.024
-7.312e-03,2.48,-0.096
-7.296e-03,2.44,-0.152
-7.280e-03,2.44,-0.208
-7.264e-03,2.44,-0.272
-7.248e-03,2.44,-0.328
-7.232e-03,2.4,-0.384
-7.216e-03,2.36,-0.448
-7.200e-03,2.36,-0.504
-7.184e-03,2.32,-0.568
-7.168e-03,2.28,-0.616
-7.152e-03,2.12,-0.672
-7.136e-03,2.04,-0.72
-7.120e-03,1.88,-0.768
-7.104e-03,1.68,-0.808
-7.088e-03,1.44,-0.832
-7.072e-03,1.16,-0.856
-7.056e-03,0.84,-0.864
-7.040e-03,0.52,-0.872
-7.024e-03,0.16,-0.864
-7.008e-03,-0.16,-0.848
-6.992e-03,-0.52,-0.816
-6.976e-03,-0.8,-0.784
-6.960e-03,-1.08,-0.744
-6.944e-03,-1.24,-0.696
-6.928e-03,-1.32,-0.648
-6.912e-03,-1.4,-0.592
-6.896e-03,-1.44,-0.544
-6.880e-03,-1.4,-0.496
-6.864e-03,-1.24,-0.456
-6.848e-03,-1.12,-0.424
-6.832e-03,-0.96,-0.392
-6.816e-03,-0.8,-0.368
-6.800e-03,-0.56,-0.352
-6.784e-03,-0.4,-0.336
-6.768e-03,-0.24,-0.328
-6.752e-03,-0.04,-0.312
-6.736e-03,0.12,-0.312
-6.720e-03,0.28,-0.304
-6.704e-03,0.44,-0.304
-6.688e-03,0.56,-0.312
-6.672e-03,0.76,-0.304
-6.656e-03,0.88,-0.304
-6.640e-03,1,-0.304
-6.624e-03,1.16,-0.304
-6.608e-03,1.32,-0.312
-6.592e-03,1.44,-0.32
-6.576e-03,1.52,-0.328
-6.560e-03,1.68,-0.32
-6.544e-03,1.76,-0.328
-6.528e-03,1.88,-0.328
-6.512e-03,1.96,-0.336
-6.496e-03,2.04,-0.344
-6.480e-03,2.16,-0.352
-6.464e-03,2.24,-0.352
-6.448e-03,2.28,-0.368
-6.432e-03,2.32,-0.368
-6.416e-03,2.36,-0.376
-6.400e-03,2.4,-0.384
-6.384e-03,2.4,-0.392
-6.368e-03,2.4,-0.408
-6.352e-03,2.36,-0.416
-6.336e-03,2.32,-0.416
-6.320e-03,2.28,-0.424
-6.304e-03,2.24,-0.432
-6.288e-03,2.12,-0.44
-6.272e-03,2,-0.44
-6.256e-03,1.84,-0.448
-6.240e-03,1.76,-0.448
-6.224e-03,1.6,-0.448
-6.208e-03,1.4,-0.44
-6.192e-03,1.2,-0.44
-6.176e-03,1.04,-0.432
-6.160e-03,0.88,-0.424
-6.144e-03,0.64,-0.408
-6.128e-03,0.44,-0.392
-6.112e-03,0.24,-0.384
-6.096e-03,0.04,-0.36
-6.080e-03,-0.16,-0.344
-6.064e-03,-0.32,-0.328
-6.048e-03,-0.44,-0.304
-6.032e-03,-0.64,-0.296
-6.016e-03,-0.76,-0.264
-6.000e-03,-0.88,-0.248
-5.984e-03,-0.96,-0.232
-5.968e-03,-1.04,-0.208
-5.952e-03,-1.16,-0.192
-5.936e-03,-1.2,-0.176
-5.920e-03,-1.28,-0.16
-5.904e-03,-1.32,-0.144
-5.888e-03,-1.36,-0.136
-5.872e-03,-1.4,-0.12
-5.856e-03,-1.4,-0.112
-5.840e-03,-1.44,-0.104
-5.824e-03,-1.44,-0.088
-5.808e-03,-1.44,-0.08
-5.792e-03,-1.44,-0.064
-5.776e-03,-1.44,-0.056
-5.760e-03,-1.44,-0.048
-5.744e-03,-1.48,-0.024
-5.728e-03,-1.44,-0.008
-5.712e-03,-1.48,0
-5.696e-03,-1.48,0.032
-5.680e-03,-1.44,0.04
-5.664e-03,-1.48,0.072
-5.648e-03,-1.48,0.096
-5.632e-03,-1.48,0.136
-5.616e-03,-1.44,0.152
-5.600e-03,-1.48,0.184
-5.584e-03,-1.48,0.216
-5.568e-03,-1.44,0.256
-5.552e-03,-1.44,0.296
-5.536e-03,-1.4,0.336
-5.520e-03,-1.44,0.368
-5.504e-03,-1.36,0.408
-5.488e-03,-1.32,0.448
-5.472e-03,-1.28,0.488
-5.456e-03,-1.2,0.52
-5.440e-03,-1.08,0.56
-5.424e-03,-1,0.592
-5.408e-03,-0.8,0.616
-5.392e-03,-0.6,0.64
-5.376e-03,-0.4,0.656
-5.360e-03,-0.2,0.664
-5.344e-03,0.04,0.664
-5.328e-03,0.32,0.656
-5.312e-03,0.6,0.64
-5.296e-03,0.92,0.616
-5.280e-03,1.2,0.584
-5.264e-03,1.44,0.552
-5.248e-03,1.68,0.496
-5.232e-03,1.88,0.448
-5.216e-03,2.08,0.4
-5.200e-03,2.2,0.328
-5.184e-03,2.28,0.272
-5.168e-03,2.36,0.208
-5.152e-03,2.44,0.144
-5.136e-03,2.44,0.08
-5.120e-03,2.44,0.016
-5.104e-03,2.44,-0.032
-5.088e-03,2.44,-0.096
-5.072e-03,2.4,-0.16
-5.056e-03,2.44,-0.216
-5.040e-03,2.4,-0.288
-5.024e-03,2.44,-0.344
-5.008e-03,2.4,-0.392
-4.992e-03,2.44,-0.456
-4.976e-03,2.4,-0.52
-4.960e-03,2.36,-0.576
-4.944e-03,2.32,-0.632
-4.928e-03,2.28,-0.688
-4.912e-03,2.2,-0.736
-4.896e-03,2.04,-0.784
-4.880e-03,1.84,-0.832
-4.864e-03,1.64,-0.864
-4.848e-03,1.4,-0.896
-4.832e-03,1.08,-0.912
-4.816e-03,0.72,-0.92
-4.800e-03,0.4,-0.912
-4.784e-03,0,-0.904
-4.768e-03,-0.32,-0.88
-4.752e-03,-0.68,-0.848
-4.736e-03,-0.96,-0.8
-4.720e-03,-1.16,-0.752
-4.704e-03,-1.32,-0.696
-4.688e-03,-1.4,-0.648
-4.672e-03,-1.4,-0.592
-4.656e-03,-1.32,-0.552
-4.640e-03,-1.24,-0.504
-4.624e-03,-1.08,-0.456
-4.608e-03,-0.92,-0.432
-4.592e-03,-0.72,-0.4
-4.576e-03,-0.52,-0.384
-4.560e-03,-0.32,-0.368
-4.544e-03,-0.12,-0.36
-4.528e-03,0.12,-0.352
-4.512e-03,0.32,-0.352
-4.496e-03,0.48,-0.344
-4.480e-03,0.64,-0.352
-4.464e-03,0.84,-0.36
-4.448e-03,1,-0.36
-4.432e-03,1.12,-0.36
-4.416e-03,1.28,-0.368
-4.400e-03,1.44,-0.376
-4.384e-03,1.6,-0.384
-4.368e-03,1.68,-0.392
-4.352e-03,1.8,-0.4
-4.336e-03,1.96,-0.408
-4.320e-03,2.08,-0.416
-4.304e-03,2.12,-0.424
-4.288e-03,2.24,-0.432
-4.272e-03,2.32,-0.44
-4.256e-03,2.36,-0.44
-4.240e-03,2.36,-0.456
-4.224e-03,2.4,-0.456
-4.208e-03,2.36,-0.464
-4.192e-03,2.36,-0.472
-4.176e-03,2.28,-0.472
-4.160e-03,2.2,-0.464
-4.144e-03,2.16,-0.464
-4.128e-03,2,-0.448
-4.112e-03,1.88,-0.44
-4.096e-03,1.72,-0.432
-4.080e-03,1.56,-0.416
-4.064e-03,1.4,-0.4
-4.048e-03,1.16,-0.376
-4.032e-03,1,-0.36
-4.016e-03,0.84,-0.344
-4.000e-03,0.64,-0.304
-3.984e-03,0.44,-0.28
-3.968e-03,0.28,-0.256
-3.952e-03,0.12,-0.232
-3.936e-03,0.04,-0.2
-3.920e-03,-0.16,-0.176
-3.904e-03,-0.24,-0.152
-3.888e-03,-0.32,-0.136
-3.872e-03,-0.44,-0.112
-3.856e-03,-0.56,-0.096
-3.840e-03,-0.6,-0.088
-3.824e-03,-0.64,-0.072
-3.808e-03,-0.72,-0.064
-3.792e-03,-0.76,-0.056
-3.776e-03,-0.76,-0.056
-3.760e-03,-0.8,-0.056
-3.744e-03,-0.84,-0.056
-3.728e-03,-0.88,-0.064
-3.712e-03,-0.92,-0.072
-3.696e-03,-0.88,-0.072
-3.680e-03,-0.92,-0.08
-3.664e-03,-0.96,-0.08
-3.648e-03,-0.96,-0.088
-3.632e-03,-0.96,-0.096
-3.616e-03,-1.04,-0.096
-3.600e-03,-1.04,-0.096
-3.584e-03,-1.08,-0.104
-3.568e-03,-1.12,-0.104
-3.552e-03,-1.12,-0.104
-3.536e-03,-1.16,-0.096
-3.520e-03,-1.16,-0.08
-3.504e-03,-1.2,-0.072
-3.488e-03,-1.2,-0.056
-3.472e-03,-1.24,-0.04
-3.456e-03,-1.28,-0.016
-3.440e-03,-1.28,0
-3.424e-03,-1.28,0.024
-3.408e-03,-1.28,0.048
-3.392e-03,-1.32,0.08
-3.376e-03,-1.32,0.12
-3.360e-03,-1.32,0.152
-3.344e-03,-1.28,0.184
-3.328e-03,-1.28,0.224
-3.312e-03,-1.32,0.256
-3.296e-03,-1.24,0.296
-3.280e-03,-1.2,0.336
-3.264e-03,-1.16,0.376
-3.248e-03,-1.08,0.416
-3.232e-03,-1,0.448
-3.216e-03,-0.92,0.488
-3.200e-03,-0.8,0.512
-3.184e-03,-0.6,0.536
-3.168e-03,-0.44,0.56
-3.152e-03,-0.28,0.576
-3.136e-03,-0.04,0.584
-3.120e-03,0.2,0.584
-3.104e-03,0.44,0.576
-3.088e-03,0.68,0.568
-3.072e-03,0.92,0.544
-3.056e-03,1.16,0.52
-3.040e-03,1.4,0.488
-3.024e-03,1.6,0.448
-3.008e-03,1.84,0.4
-2.992e-03,1.96,0.344
-2.976e-03,2.08,0.288
-2.960e-03,2.24,0.232
-2.944e-03,2.32,0.176
-2.928e-03,2.36,0.12
-2.912e-03,2.4,0.056
-2.896e-03,2.44,0
-2.880e-03,2.44,-0.056
-2.864e-03,2.4,-0.12
-2.848e-03,2.44,-0.176
-2.832e-03,2.44,-0.232
-2.816e-03,2.44,-0.296
-2.800e-03,2.4,-0.352
-2.784e-03,2.4,-0.416
-2.768e-03,2.36,-0.464
-2.752e-03,2.32,-0.528
-2.736e-03,2.28,-0.584
-2.720e-03,2.24,-0.632
-2.704e-03,2.12,-0.688
-2.688e-03,1.96,-0.736
-2.672e-03,1.76,-0.776
-2.656e-03,1.6,-0.808
-2.640e-03,1.36,-0.84
-2.624e-03,1,-0.856
-2.608e-03,0.72,-0.864
-2.592e-03,0.36,-0.864
-2.576e-03,0,-0.856
-2.560e-03,-0.28,-0.832
-2.544e-03,-0.6,-0.8
-2.528e-03,-0.88,-0.76
-2.512e-03,-1.16,-0.712
-2.496e-03,-1.28,-0.664
-2.480e-03,-1.4,-0.616
-2.464e-03,-1.44,-0.568
-2.448e-03,-1.36,-0.52
-2.432e-03,-1.28,-0.48
-2.416e-03,-1.2,-0.44
-2.400e-03,-1.08,-0.416
-2.384e-03,-0.92,-0.384
-2.368e-03,-0.72,-0.36
-2.352e-03,-0.6,-0.336
-2.336e-03,-0.36,-0.328
-2.320e-03,-0.2,-0.312
-2.304e-03,0,-0.304
-2.288e-03,0.16,-0.304
-2.272e-03,0.28,-0.296
-2.256e-03,0.48,-0.304
-2.240e-03,0.64,-0.296
-2.224e-03,0.76,-0.296
-2.208e-03,0.88,-0.304
-2.192e-03,1.04,-0.296
-2.176e-03,1.16,-0.304
-2.160e-03,1.28,-0.304
-2.144e-03,1.4,-0.304
-2.128e-03,1.52,-0.312
-2.112e-03,1.68,-0.312
-2.096e-03,1.76,-0.32
-2.080e-03,1.84,-0.328
-2.064e-03,1.96,-0.328
-2.048e-03,2.08,-0.336
-2.032e-03,2.12,-0.344
-2.016e-03,2.2,-0.352
-2.000e-03,2.28,-0.352
-1.984e-03,2.32,-0.36
-1.968e-03,2.36,-0.368
-1.952e-03,2.4,-0.376
-1.936e-03,2.44,-0.384
-1.920e-03,2.44,-0.392
-1.904e-03,2.36,-0.408
-1.888e-03,2.36,-0.408
-1.872e-03,2.32,-0.416
-1.856e-03,2.28,-0.432
-1.840e-03,2.12,-0.44
-1.824e-03,2.08,-0.44
-1.808e-03,1.96,-0.456
-1.792e-03,1.8,-0.456
-1.776e-03,1.64,-0.456
-1.760e-03,1.48,-0.456
-1.744e-03,1.32,-0.448
-1.728e-03,1.12,-0.448
-1.712e-03,0.92,-0.448
-1.696e-03,0.72,-0.432
-1.680e-03,0.48,-0.416
-1.664e-03,0.28,-0.408
-1.648e-03,0.08,-0.384
-1.632e-03,-0.12,-0.368
-1.616e-03,-0.28,-0.352
-1.600e-03,-0.48,-0.336
-1.584e-03,-0.6,-0.312
-1.568e-03,-0.76,-0.288
-1.552e-03,-0.88,-0.272
-1.536e-03,-1,-0.256
-1.520e-03,-1.12,-0.232
-1.504e-03,-1.2,-0.216
-1.488e-03,-1.24,-0.2
-1.472e-03,-1.28,-0.184
-1.456e-03,-1.36,-0.16
-1.440e-03,-1.36,-0.144
-1.424e-03,-1.4,-0.136
-1.408e-03,-1.44,-0.12
-1.392e-03,-1.44,-0.112
-1.376e-03,-1.48,-0.104
-1.360e-03,-1.44,-0.08
-1.344e-03,-1.44,-0.072
-1.328e-03,-1.48,-0.056
-1.312e-03,-1.48,-0.04
-1.296e-03,-1.48,-0.024
-1.280e-03,-1.48,-0.008
-1.264e-03,-1.48,0.008
-1.248e-03,-1.48,0.024
-1.232e-03,-1.48,0.048
-1.216e-03,-1.48,0.072
-1.200e-03,-1.48,0.104
-1.184e-03,-1.44,0.128
-1.168e-03,-1.44,0.16
-1.152e-03,-1.48,0.192
-1.136e-03,-1.44,0.224
-1.120e-03,-1.48,0.264
-1.104e-03,-1.48,0.304
-1.088e-03,-1.44,0.336
-1.072e-03,-1.44,0.376
-1.056e-03,-1.4,0.416
-1.040e-03,-1.36,0.456
-1.024e-03,-1.32,0.504
-1.008e-03,-1.24,0.536
-9.920e-04,-1.2,0.576
-9.760e-04,-1.04,0.608
-9.600e-04,-0.84,0.64
-9.440e-04,-0.72,0.656
-9.280e-04,-0.48,0.672
-9.120e-04,-0.24,0.688
-8.960e-04,0,0.688
-8.800e-04,0.28,0.688
-8.640e-04,0.6,0.664
-8.480e-04,0.88,0.64
-8.320e-04,1.16,0.608
-8.160e-04,1.4,0.568
-8.000e-04,1.68,0.52
-7.840e-04,1.88,0.464
-7.680e-04,2.08,0.416
-7.520e-04,2.2,0.344
-7.360e-04,2.32,0.28
-7.200e-04,2.4,0.216
-7.040e-04,2.4,0.16
-6.880e-04,2.44,0.088
-6.720e-04,2.48,0.024
-6.560e-04,2.44,-0.032
-6.400e-04,2.44,-0.096
-6.240e-04,2.44,-0.152
-6.080e-04,2.4,-0.216
-5.920e-04,2.44,-0.28
-5.760e-04,2.4,-0.336
-5.600e-04,2.4,-0.392
-5.440e-04,2.4,-0.456
-5.280e-04,2.36,-0.512
-5.120e-04,2.36,-0.576
-4.960e-04,2.36,-0.632
-4.800e-04,2.28,-0.688
-4.640e-04,2.16,-0.744
-4.480e-04,2.04,-0.8
-4.320e-04,1.92,-0.84
-4.160e-04,1.68,-0.88
-4.000e-04,1.44,-0.912
-3.840e-04,1.16,-0.928
-3.680e-04,0.8,-0.936
-3.520e-04,0.44,-0.936
-3.360e-04,0.08,-0.92
-3.200e-04,-0.28,-0.896
-3.040e-04,-0.6,-0.864
-2.880e-04,-0.92,-0.824
-2.720e-04,-1.16,-0.776
-2.560e-04,-1.32,-0.72
-2.400e-04,-1.4,-0.664
-2.240e-04,-1.4,-0.608
-2.080e-04,-1.36,-0.568
-1.920e-04,-1.28,-0.52
-1.760e-04,-1.08,-0.48
-1.600e-04,-0.88,-0.44
-1.440e-04,-0.68,-0.424
-1.280e-04,-0.52,-0.392
-1.120e-04,-0.24,-0.384
-9.600e-05,-0.04,-0.368
-8.000e-05,0.12,-0.36
-6.400e-05,0.32,-0.36
-4.800e-05,0.56,-0.36
-3.200e-05,0.76,-0.36
-1.600e-05,0.88,-0.368
2.440e-16,1.08,-0.376
1.600e-05,1.24,-0.384
3.200e-05,1.44,-0.384
4.800e-05,1.52,-0.392
6.400e-05,1.64,-0.4
8.000e-05,1.8,-0.416
9.600e-05,1.92,-0.424
1.120e-04,2.04,-0.432
1.280e-04,2.12,-0.44
1.440e-04,2.24,-0.448
1.600e-04,2.32,-0.456
1.760e-04,2.32,-0.464
1.920e-04,2.36,-0.464
2.080e-04,2.4,-0.472
2.240e-04,2.4,-0.48
2.400e-04,2.32,-0.48
2.560e-04,2.28,-0.48
2.720e-04,2.24,-0.472
2.880e-04,2.12,-0.472
3.040e-04,1.96,-0.456
3.200e-04,1.84,-0.448
3.360e-04,1.68,-0.432
3.520e-04,1.52,-0.416
3.680e-04,1.28,-0.392
3.840e-04,1.12,-0.376
4.000e-04,0.96,-0.344
4.160e-04,0.76,-0.312
4.320e-04,0.56,-0.288
4.480e-04,0.36,-0.256
4.640e-04,0.2,-0.224
4.800e-04,0.08,-0.192
4.960e-04,-0.08,-0.176
5.120e-04,-0.2,-0.136
5.280e-04,-0.28,-0.112
5.440e-04,-0.36,-0.096
5.600e-04,-0.48,-0.072
5.760e-04,-0.52,-0.056
5.920e-04,-0.56,-0.048
6.080e-04,-0.6,-0.032
6.240e-04,-0.64,-0.032
6.400e-04,-0.64,-0.024
6.560e-04,-0.68,-0.024
6.720e-04,-0.72,-0.032
6.880e-04,-0.72,-0.032
7.040e-04,-0.72,-0.048
7.200e-04,-0.72,-0.048
7.360e-04,-0.76,-0.056
7.520e-04,-0.8,-0.072
7.680e-04,-0.8,-0.08
7.840e-04,-0.8,-0.088
8.000e-04,-0.84,-0.104
8.160e-04,-0.84,-0.112
8.320e-04,-0.88,-0.12
8.480e-04,-0.92,-0.12
8.640e-04,-0.96,-0.136
8.800e-04,-0.96,-0.128
8.960e-04,-1.04,-0.12
9.120e-04,-1.08,-0.12
9.280e-04,-1.12,-0.112
9.440e-04,-1.16,-0.104
9.600e-04,-1.16,-0.088
9.760e-04,-1.2,-0.072
9.920e-04,-1.24,-0.048
1.008e-03,-1.24,-0.024
1.024e-03,-1.24,0
1.040e-03,-1.32,0.032
1.056e-03,-1.32,0.064
1.072e-03,-1.28,0.096
1.088e-03,-1.28,0.136
1.104e-03,-1.32,0.168
1.120e-03,-1.28,0.208
1.136e-03,-1.24,0.248
1.152e-03,-1.24,0.288
1.168e-03,-1.24,0.328
1.184e-03,-1.16,0.368
1.200e-03,-1.08,0.408
1.216e-03,-1.04,0.448
1.232e-03,-0.92,0.48
1.248e-03,-0.76,0.512
1.264e-03,-0.68,0.544
1.280e-03,-0.52,0.568
1.296e-03,-0.28,0.584
1.312e-03,-0.08,0.592
1.328e-03,0.12,0.6
1.344e-03,0.4,0.592
1.360e-03,0.64,0.584
1.376e-03,0.88,0.56
1.392e-03,1.12,0.536
1.408e-03,1.36,0.496
1.424e-03,1.6,0.456
1.440e-03,1.8,0.408
1.456e-03,1.96,0.36
1.472e-03,2.12,0.304
1.488e-03,2.24,0.248
1.504e-03,2.32,0.184
1.520e-03,2.36,0.128
1.536e-03,2.4,0.064
1.552e-03,2.44,0.008
1.568e-03,2.44,-0.048
1.584e-03,2.44,-0.12
1.600e-03,2.44,-0.176
1.616e-03,2.4,-0.232
1.632e-03,2.44,-0.296
1.648e-03,2.44,-0.352
1.664e-03,2.4,-0.416
1.680e-03,2.36,-0.472
1.696e-03,2.32,-0.528
1.712e-03,2.32,-0.592
1.728e-03,2.2,-0.64
1.744e-03,2.08,-0.696
1.760e-03,1.96,-0.744
1.776e-03,1.8,-0.784
1.792e-03,1.6,-0.824
1.808e-03,1.32,-0.848
1.824e-03,1,-0.864
1.840e-03,0.72,-0.872
1.856e-03,0.4,-0.872
1.872e-03,0,-0.856
1.888e-03,-0.32,-0.84
1.904e-03,-0.64,-0.808
1.920e-03,-0.88,-0.768
1.936e-03,-1.12,-0.72
1.952e-03,-1.32,-0.672
1.968e-03,-1.4,-0.624
1.984e-03,-1.4,-0.576
2.000e-03,-1.4,-0.528
2.016e-03,-1.32,-0.488
2.032e-03,-1.2,-0.448
2.048e-03,-1,-0.416
2.064e-03,-0.88,-0.384
2.080e-03,-0.72,-0.36
2.096e-03,-0.48,-0.344
2.112e-03,-0.32,-0.328
2.128e-03,-0.12,-0.32
2.144e-03,0,-0.312
2.160e-03,0.2,-0.304
2.176e-03,0.4,-0.304
2.192e-03,0.52,-0.304
2.208e-03,0.64,-0.304
2.224e-03,0.84,-0.304
2.240e-03,1,-0.312
2.256e-03,1.08,-0.312
2.272e-03,1.2,-0.32
2.288e-03,1.4,-0.32
2.304e-03,1.52,-0.32
2.320e-03,1.6,-0.328
2.336e-03,1.72,-0.328
2.352e-03,1.84,-0.336
2.368e-03,1.92,-0.344
2.384e-03,2.04,-0.344
2.400e-03,2.12,-0.352
2.416e-03,2.2,-0.36
2.432e-03,2.28,-0.368
2.448e-03,2.32,-0.376
2.464e-03,2.36,-0.376
2.480e-03,2.4,-0.392
2.496e-03,2.4,-0.4
2.512e-03,2.4,-0.4
2.528e-03,2.36,-0.416
2.544e-03,2.36,-0.424
2.560e-03,2.28,-0.424
2.576e-03,2.2,-0.432
2.592e-03,2.12,-0.432
2.608e-03,2.04,-0.44
2.624e-03,1.88,-0.44
2.640e-03,1.72,-0.44
2.656e-03,1.6,-0.44
2.672e-03,1.48,-0.44
2.688e-03,1.24,-0.44
2.704e-03,1.04,-0.424
2.720e-03,0.88,-0.408
2.736e-03,0.68,-0.4
2.752e-03,0.48,-0.392
2.768e-03,0.24,-0.368
2.784e-03,0.08,-0.352
2.800e-03,-0.08,-0.344
2.816e-03,-0.28,-0.312
2.832e-03,-0.44,-0.296
2.848e-03,-0.56,-0.28
2.864e-03,-0.72,-0.256
2.880e-03,-0.8,-0.24
2.896e-03,-0.92,-0.224
2.912e-03,-1,-0.2
2.928e-03,-1.12,-0.184
2.944e-03,-1.16,-0.176
2.960e-03,-1.24,-0.16
2.976e-03,-1.28,-0.144
2.992e-03,-1.32,-0.136
3.008e-03,-1.32,-0.12
3.024e-03,-1.36,-0.112
3.040e-03,-1.4,-0.104
3.056e-03,-1.4,-0.096
3.072e-03,-1.44,-0.08
3.088e-03,-1.44,-0.072
3.104e-03,-1.44,-0.056
3.120e-03,-1.44,-0.048
3.136e-03,-1.44,-0.032
3.152e-03,-1.44,-0.016
3.168e-03,-1.44,0
3.184e-03,-1.44,0.016
3.200e-03,-1.48,0.032
3.216e-03,-1.44,0.056
3.232e-03,-1.48,0.08
3.248e-03,-1.44,0.112
3.264e-03,-1.48,0.136
3.280e-03,-1.48,0.168
3.296e-03,-1.44,0.2
3.312e-03,-1.48,0.232
3.328e-03,-1.44,0.272
3.344e-03,-1.44,0.312
3.360e-03,-1.4,0.344
3.376e-03,-1.4,0.384
3.392e-03,-1.32,0.424
3.408e-03,-1.28,0.456
3.424e-03,-1.2,0.496
3.440e-03,-1.16,0.536
3.456e-03,-0.96,0.568
3.472e-03,-0.84,0.592
3.488e-03,-0.72,0.616
3.504e-03,-0.48,0.632
3.520e-03,-0.24,0.648
3.536e-03,0,0.648
3.552e-03,0.24,0.648
3.568e-03,0.52,0.632
3.584e-03,0.76,0.616
3.600e-03,1.04,0.584
3.616e-03,1.36,0.552
3.632e-03,1.56,0.512
3.648e-03,1.8,0.464
3.664e-03,2,0.408
3.680e-03,2.12,0.352
3.696e-03,2.28,0.296
3.712e-03,2.36,0.232
3.728e-03,2.44,0.168
3.744e-03,2.44,0.104
3.760e-03,2.48,0.04
3.776e-03,2.44,-0.016
3.792e-03,2.44,-0.072
3.808e-03,2.48,-0.128
3.824e-03,2.44,-0.192
3.840e-03,2.44,-0.256
3.856e-03,2.44,-0.312
3.872e-03,2.4,-0.368
3.888e-03,2.4,-0.424
3.904e-03,2.4,-0.488
3.920e-03,2.4,-0.544
3.936e-03,2.32,-0.608
3.952e-03,2.28,-0.664
3.968e-03,2.2,-0.72
3.984e-03,2.08,-0.768
4.000e-03,1.88,-0.808
4.016e-03,1.68,-0.848
4.032e-03,1.44,-0.872
4.048e-03,1.2,-0.896
4.064e-03,0.84,-0.904
4.080e-03,0.48,-0.912
4.096e-03,0.08,-0.896
4.112e-03,-0.24,-0.872
4.128e-03,-0.56,-0.848
4.144e-03,-0.88,-0.808
4.160e-03,-1.12,-0.76
4.176e-03,-1.28,-0.712
4.192e-03,-1.36,-0.656
4.208e-03,-1.44,-0.608
4.224e-03,-1.4,-0.56
4.240e-03,-1.28,-0.512
4.256e-03,-1.16,-0.472
4.272e-03,-1,-0.432
4.288e-03,-0.84,-0.408
4.304e-03,-0.64,-0.384
4.320e-03,-0.4,-0.368
4.336e-03,-0.24,-0.352
4.352e-03,-0.04,-0.344
4.368e-03,0.16,-0.344
4.384e-03,0.36,-0.344
4.400e-03,0.52,-0.336
4.416e-03,0.68,-0.344
4.432e-03,0.88,-0.344
4.448e-03,1.04,-0.352
4.464e-03,1.16,-0.36
4.480e-03,1.32,-0.36
4.496e-03,1.48,-0.368
4.512e-03,1.6,-0.376
4.528e-03,1.68,-0.384
4.544e-03,1.84,-0.392
4.560e-03,2,-0.392
4.576e-03,2.08,-0.408
4.592e-03,2.12,-0.416
4.608e-03,2.24,-0.424
4.624e-03,2.32,-0.432
4.640e-03,2.36,-0.432
4.656e-03,2.36,-0.44
4.672e-03,2.4,-0.448
4.688e-03,2.4,-0.448
4.704e-03,2.36,-0.456
4.720e-03,2.28,-0.456
4.736e-03,2.24,-0.464
4.752e-03,2.16,-0.448
4.768e-03,2.08,-0.44
4.784e-03,1.88,-0.44
4.800e-03,1.76,-0.44
4.816e-03,1.6,-0.416
4.832e-03,1.48,-0.4
4.848e-03,1.24,-0.384
4.864e-03,1.08,-0.368
4.880e-03,0.88,-0.352
4.896e-03,0.72,-0.32
4.912e-03,0.48,-0.296
4.928e-03,0.32,-0.28
4.944e-03,0.2,-0.248
4.960e-03,0.04,-0.224
4.976e-03,-0.12,-0.2
4.992e-03,-0.24,-0.176
5.008e-03,-0.32,-0.168
5.024e-03,-0.44,-0.136
5.040e-03,-0.56,-0.12
5.056e-03,-0.64,-0.112
5.072e-03,-0.64,-0.096
5.088e-03,-0.76,-0.088
5.104e-03,-0.8,-0.08
5.120e-03,-0.84,-0.08
5.136e-03,-0.84,-0.072
5.152e-03,-0.92,-0.08
5.168e-03,-0.96,-0.08
5.184e-03,-0.96,-0.08
5.200e-03,-1,-0.08
5.216e-03,-1,-0.08
5.232e-03,-1.04,-0.088
5.248e-03,-1.04,-0.096
5.264e-03,-1.12,-0.088
5.280e-03,-1.12,-0.088
5.296e-03,-1.12,-0.088
5.312e-03,-1.16,-0.088
5.328e-03,-1.2,-0.08
5.344e-03,-1.2,-0.08
5.360e-03,-1.24,-0.072
5.376e-03,-1.24,-0.056
5.392e-03,-1.28,-0.048
5.408e-03,-1.28,-0.032
5.424e-03,-1.32,-0.016
5.440e-03,-1.32,0
5.456e-03,-1.32,0.024
5.472e-03,-1.32,0.056
5.488e-03,-1.32,0.088
5.504e-03,-1.32,0.112
5.520e-03,-1.32,0.144
5.536e-03,-1.32,0.184
5.552e-03,-1.28,0.216
5.568e-03,-1.28,0.256
5.584e-03,-1.24,0.288
5.600e-03,-1.2,0.328
5.616e-03,-1.16,0.368
5.632e-03,-1.12,0.4
5.648e-03,-1.04,0.44
5.664e-03,-0.92,0.48
5.680e-03,-0.8,0.504
5.696e-03,-0.68,0.528
5.712e-03,-0.52,0.552
5.728e-03,-0.28,0.568
5.744e-03,-0.12,0.576
5.760e-03,0.08,0.584
5.776e-03,0.36,0.584
5.792e-03,0.56,0.568
5.808e-03,0.84,0.552
5.824e-03,1.12,0.528
5.840e-03,1.32,0.504
5.856e-03,1.52,0.456
5.872e-03,1.72,0.408
5.888e-03,1.96,0.368
5.904e-03,2.04,0.312
5.920e-03,2.16,0.256
5.936e-03,2.24,0.2
5.952e-03,2.32,0.152
5.968e-03,2.36,0.08
5.984e-03,2.4,0.024
6.000e-03,2.44,-0.032
6.016e-03,2.44,-0.088
6.032e-03,2.44,-0.144
6.048e-03,2.44,-0.208
6.064e-03,2.44,-0.272
6.080e-03,2.4,-0.328
6.096e-03,2.4,-0.384
6.112e-03,2.36,-0.44
6.128e-03,2.36,-0.496
6.144e-03,2.32,-0.552
6.160e-03,2.2,-0.608
6.176e-03,2.16,-0.664
6.192e-03,2.04,-0.712
6.208e-03,1.88,-0.752
6.224e-03,1.68,-0.792
6.240e-03,1.4,-0.824
6.256e-03,1.2,-0.848
6.272e-03,0.88,-0.856
6.288e-03,0.52,-0.864
6.304e-03,0.16,-0.856
6.320e-03,-0.16,-0.84
6.336e-03,-0.48,-0.808
6.352e-03,-0.76,-0.776
6.368e-03,-1.04,-0.736
6.384e-03,-1.2,-0.688
6.400e-03,-1.32,-0.64
6.416e-03,-1.4,-0.592
6.432e-03,-1.44,-0.544
6.448e-03,-1.4,-0.496
6.464e-03,-1.28,-0.456
6.480e-03,-1.16,-0.416
6.496e-03,-1,-0.392
6.512e-03,-0.8,-0.368
6.528e-03,-0.64,-0.344
6.544e-03,-0.48,-0.328
6.560e-03,-0.28,-0.312
6.576e-03,-0.08,-0.304
6.592e-03,0.08,-0.296
6.608e-03,0.24,-0.296
6.624e-03,0.36,-0.296
6.640e-03,0.52,-0.288
6.656e-03,0.68,-0.296
6.672e-03,0.8,-0.296
6.688e-03,0.92,-0.296
6.704e-03,1.04,-0.296
6.720e-03,1.2,-0.304
6.736e-03,1.36,-0.304
6.752e-03,1.44,-0.312
6.768e-03,1.56,-0.312
6.784e-03,1.68,-0.312
6.800e-03,1.8,-0.312
6.816e-03,1.88,-0.32
6.832e-03,2,-0.328
6.848e-03,2.04,-0.328
6.864e-03,2.12,-0.336
6.880e-03,2.2,-0.344
6.896e-03,2.32,-0.352
6.912e-03,2.32,-0.368
6.928e-03,2.36,-0.368
6.944e-03,2.4,-0.376
6.960e-03,2.4,-0.384
6.976e-03,2.4,-0.4
6.992e-03,2.4,-0.4
7.008e-03,2.32,-0.416
7.024e-03,2.28,-0.424
7.040e-03,2.24,-0.432
7.056e-03,2.12,-0.44
7.072e-03,2.04,-0.448
7.088e-03,1.92,-0.448
7.104e-03,1.8,-0.464
7.120e-03,1.6,-0.456
7.136e-03,1.48,-0.456
7.152e-03,1.28,-0.456
7.168e-03,1.12,-0.456
7.184e-03,0.88,-0.448
7.200e-03,0.68,-0.44
7.216e-03,0.48,-0.424
7.232e-03,0.28,-0.408
7.248e-03,0.04,-0.392
7.264e-03,-0.16,-0.376
7.280e-03,-0.32,-0.36
7.296e-03,-0.48,-0.336
7.312e-03,-0.64,-0.32
7.328e-03,-0.8,-0.296
7.344e-03,-0.92,-0.272
7.360e-03,-1.04,-0.256
7.376e-03,-1.16,-0.232
7.392e-03,-1.24,-0.216
7.408e-03,-1.28,-0.2
7.424e-03,-1.32,-0.176
7.440e-03,-1.4,-0.16
7.456e-03,-1.4,-0.144
7.472e-03,-1.44,-0.136
7.488e-03,-1.44,-0.12
7.504e-03,-1.44,-0.104
7.520e-03,-1.48,-0.096
7.536e-03,-1.48,-0.08
7.552e-03,-1.48,-0.064
7.568e-03,-1.48,-0.048
7.584e-03,-1.44,-0.032
7.600e-03,-1.44,-0.024
7.616e-03,-1.48,0
7.632e-03,-1.48,0.016
7.648e-03,-1.44,0.04
7.664e-03,-1.44,0.056
7.680e-03,-1.48,0.088
7.696e-03,-1.48,0.112
7.712e-03,-1.44,0.144
7.728e-03,-1.48,0.176
7.744e-03,-1.48,0.208
7.760e-03,-1.44,0.24
7.776e-03,-1.48,0.28
7.792e-03,-1.48,0.32
7.808e-03,-1.44,0.36
7.824e-03,-1.44,0.392
7.840e-03,-1.4,0.432
7.856e-03,-1.4,0.48
7.872e-03,-1.28,0.52
7.888e-03,-1.24,0.56
7.904e-03,-1.16,0.592
7.920e-03,-1.04,0.624
7.936e-03,-0.84,0.656
7.952e-03,-0.64,0.672
7.968e-03,-0.48,0.696
7.984e-03,-0.2,0.696
8.000e-03,0.08,0.704
8.016e-03,0.36,0.696
8.032e-03,0.64,0.672
8.048e-03,0.96,0.64
8.064e-03,1.28,0.608
8.080e-03,1.52,0.56
8.096e-03,1.76,0.512
8.112e-03,1.92,0.456
8.128e-03,2.08,0.392
8.144e-03,2.28,0.336
8.160e-03,2.36,0.272
8.176e-03,2.44,0.208
8.192e-03,2.44,0.144
8.208e-03,2.44,0.072
8.224e-03,2.44,0.008
8.240e-03,2.4,-0.048
8.256e-03,2.44,-0.112
8.272e-03,2.44,-0.168
8.288e-03,2.4,-0.232
8.304e-03,2.4,-0.296
8.320e-03,2.4,-0.36
8.336e-03,2.4,-0.424
8.352e-03,2.4,-0.472
8.368e-03,2.4,-0.536
8.384e-03,2.36,-0.6
8.400e-03,2.32,-0.656
8.416e-03,2.28,-0.712
8.432e-03,2.16,-0.768
8.448e-03,2.08,-0.816
8.464e-03,1.88,-0.856
8.480e-03,1.68,-0.896
8.496e-03,1.36,-0.92
8.512e-03,1.04,-0.944
8.528e-03,0.72,-0.952
8.544e-03,0.36,-0.944
8.560e-03,-0.04,-0.928
8.576e-03,-0.4,-0.896
8.592e-03,-0.72,-0.864
8.608e-03,-0.96,-0.816
8.624e-03,-1.2,-0.768
8.640e-03,-1.32,-0.712
8.656e-03,-1.4,-0.656
8.672e-03,-1.36,-0.6
8.688e-03,-1.32,-0.552
8.704e-03,-1.2,-0.512
8.720e-03,-1,-0.472
8.736e-03,-0.8,-0.44
8.752e-03,-0.6,-0.416
8.768e-03,-0.4,-0.392
8.784e-03,-0.16,-0.384
8.800e-03,0.04,-0.368
8.816e-03,0.24,-0.368
8.832e-03,0.44,-0.36
8.848e-03,0.64,-0.368
8.864e-03,0.84,-0.368
8.880e-03,0.96,-0.376
8.896e-03,1.16,-0.376
8.912e-03,1.36,-0.392
8.928e-03,1.52,-0.4
8.944e-03,1.64,-0.4
8.960e-03,1.72,-0.408
8.976e-03,1.88,-0.424
8.992e-03,2.04,-0.432
9.008e-03,2.08,-0.44
9.024e-03,2.16,-0.448
9.040e-03,2.28,-0.456
9.056e-03,2.32,-0.472
9.072e-03,2.36,-0.472
9.088e-03,2.4,-0.48
9.104e-03,2.36,-0.48
9.120e-03,2.36,-0.48
9.136e-03,2.32,-0.48
9.152e-03,2.24,-0.48
9.168e-03,2.12,-0.472
9.184e-03,2.04,-0.464
9.200e-03,1.88,-0.456
9.216e-03,1.68,-0.44
9.232e-03,1.56,-0.424
9.248e-03,1.36,-0.4
9.264e-03,1.2,-0.376
9.280e-03,0.96,-0.352
9.296e-03,0.76,-0.32
9.312e-03,0.6,-0.288
9.328e-03,0.44,-0.264
9.344e-03,0.24,-0.224
9.360e-03,0.08,-0.2
9.376e-03,-0.04,-0.168
9.392e-03,-0.16,-0.136
9.408e-03,-0.28,-0.112
9.424e-03,-0.36,-0.088
9.440e-03,-0.44,-0.064
9.456e-03,-0.48,-0.048
9.472e-03,-0.6,-0.04
9.488e-03,-0.56,-0.024
9.504e-03,-0.6,-0.016
9.520e-03,-0.64,-0.016
9.536e-03,-0.68,-0.016
9.552e-03,-0.64,-0.016
9.568e-03,-0.68,-0.032
9.584e-03,-0.68,-0.04
9.600e-03,-0.76,-0.04
9.616e-03,-0.68,-0.048
9.632e-03,-0.72,-0.064
9.648e-03,-0.76,-0.08
9.664e-03,-0.76,-0.088
9.680e-03,-0.76,-0.104
9.696e-03,-0.8,-0.12
9.712e-03,-0.8,-0.12
9.728e-03,-0.84,-0.128
9.744e-03,-0.88,-0.136
9.760e-03,-0.92,-0.136
9.776e-03,-1,-0.136
9.792e-03,-1,-0.136
9.808e-03,-1.04,-0.128
9.824e-03,-1.12,-0.128
9.840e-03,-1.12,-0.104
9.856e-03,-1.16,-0.088
9.872e-03,-1.2,-0.072
9.888e-03,-1.24,-0.048
9.904e-03,-1.24,-0.024
9.920e-03,-1.24,0
9.936e-03,-1.28,0.032
9.952e-03,-1.32,0.064
9.968e-03,-1.28,0.104
9.984e-03,-1.32,0.144
1.000e-02,-1.32,0.184
1.002e-02,-1.32,0.216
1.003e-02,-1.24,0.256
1.005e-02,-1.24,0.304
1.006e-02,-1.2,0.352
1.008e-02,-1.16,0.384
1.010e-02,-1.04,0.424
1.011e-02,-1,0.456
1.013e-02,-0.92,0.496
1.014e-02,-0.76,0.528
1.016e-02,-0.6,0.552
1.018e-02,-0.44,0.576
1.019e-02,-0.24,0.592
1.021e-02,0,0.6
1.022e-02,0.2,0.6
1.024e-02,0.48,0.592
1.026e-02,0.72,0.576
1.027e-02,1,0.552
1.029e-02,1.2,0.528
1.030e-02,1.44,0.488
1.032e-02,1.64,0.448
1.034e-02,1.84,0.392
1.035e-02,2,0.344
1.037e-02,2.16,0.288
1.038e-02,2.24,0.224
1.040e-02,2.28,0.168
1.042e-02,2.36,0.104
1.043e-02,2.44,0.04
1.045e-02,2.44,-0.016
1.046e-02,2.44,-0.072
1.048e-02,2.44,-0.136
1.050e-02,2.44,-0.192
1.051e-02,2.4,-0.256
1.053e-02,2.44,-0.32
1.054e-02,2.44,-0.376
1.056e-02,2.36,-0.44
1.058e-02,2.36,-0.496
1.059e-02,2.36,-0.552
1.061e-02,2.32,-0.608
1.062e-02,2.16,-0.664
1.064e-02,2.04,-0.712
1.066e-02,1.88,-0.768
1.067e-02,1.72,-0.8
1.069e-02,1.52,-0.84
1.070e-02,1.24,-0.856
1.072e-02,0.88,-0.872
1.074e-02,0.6,-0.88
1.075e-02,0.28,-0.88
1.077e-02,-0.12,-0.856
1.078e-02,-0.44,-0.832
1.080e-02,-0.76,-0.8
1.082e-02,-0.96,-0.76
1.083e-02,-1.2,-0.704
1.085e-02,-1.36,-0.664
1.086e-02,-1.4,-0.608
1.088e-02,-1.4,-0.56
1.090e-02,-1.36,-0.512
1.091e-02,-1.28,-0.472
1.093e-02,-1.16,-0.432
1.094e-02,-1,-0.4
1.096e-02,-0.8,-0.376
1.098e-02,-0.64,-0.36
1.099e-02,-0.44,-0.344
1.101e-02,-0.24,-0.328
1.102e-02,-0.04,-0.32
1.104e-02,0.12,-0.312
1.106e-02,0.28,-0.312
1.107e-02,0.48,-0.312
1.109e-02,0.6,-0.304
1.110e-02,0.72,-0.312
1.112e-02,0.88,-0.312
1.114e-02,1.04,-0.32
1.115e-02,1.16,-0.312
1.117e-02,1.28,-0.32
1.118e-02,1.44,-0.328
1.120e-02,1.6,-0.336
1.122e-02,1.68,-0.336
1.123e-02,1.76,-0.336
1.125e-02,1.88,-0.344
1.126e-02,2,-0.352
1.128e-02,2.08,-0.352
1.130e-02,2.12,-0.36
1.131e-02,2.24,-0.368
1.133e-02,2.28,-0.376
1.134e-02,2.32,-0.384
1.136e-02,2.36,-0.392
1.138e-02,2.4,-0.392
1.139e-02,2.44,-0.4
1.141e-02,2.4,-0.416
1.142e-02,2.36,-0.416
1.144e-02,2.32,-0.424
1.146e-02,2.28,-0.432
1.147e-02,2.12,-0.44
1.149e-02,2.04,-0.448
1.150e-02,1.96,-0.44
1.152e-02,1.8,-0.44
1.154e-02,1.64,-0.44
1.155e-02,1.52,-0.432
1.157e-02,1.32,-0.432
1.158e-02,1.16,-0.424
1.160e-02,0.92,-0.416
1.162e-02,0.72,-0.4
1.163e-02,0.52,-0.384
1.165e-02,0.36,-0.368
1.166e-02,0.16,-0.352
1.168e-02,-0.08,-0.336
1.170e-02,-0.16,-0.32
1.171e-02,-0.36,-0.296
1.173e-02,-0.52,-0.28
1.174e-02,-0.64,-0.256
1.176e-02,-0.76,-0.24
1.178e-02,-0.84,-0.224
1.179e-02,-0.96,-0.208
1.181e-02,-1.08,-0.192
1.182e-02,-1.12,-0.176
1.184e-02,-1.16,-0.16
1.186e-02,-1.24,-0.144
1.187e-02,-1.28,-0.144
1.189e-02,-1.32,-0.12
1.190e-02,-1.32,-0.112
1.192e-02,-1.4,-0.104
1.194e-02,-1.4,-0.096
1.195e-02,-1.4,-0.08
1.197e-02,-1.4,-0.072
1.198e-02,-1.4,-0.064
1.200e-02,-1.44,-0.056
1.202e-02,-1.44,-0.04
1.203e-02,-1.44,-0.024
1.205e-02,-1.48,-0.008
1.206e-02,-1.44,0.008
1.208e-02,-1.44,0.024
1.210e-02,-1.48,0.048
1.211e-02,-1.44,0.064
1.213e-02,-1.48,0.096
1.214e-02,-1.44,0.12
1.216e-02,-1.48,0.152
1.218e-02,-1.44,0.184
1.219e-02,-1.44,0.216
1.221e-02,-1.44,0.248
1.222e-02,-1.44,0.288
1.224e-02,-1.4,0.32
1.226e-02,-1.36,0.36
1.227e-02,-1.36,0.4
1.229e-02,-1.28,0.44
1.230e-02,-1.24,0.472
1.232e-02,-1.16,0.512
1.234e-02,-1.08,0.544
1.235e-02,-0.88,0.576
1.237e-02,-0.72,0.6
1.238e-02,-0.6,0.624
1.240e-02,-0.36,0.64
1.242e-02,-0.08,0.64
1.243e-02,0.08,0.648
1.245e-02,0.36,0.632
1.246e-02,0.68,0.616
1.248e-02,0.92,0.592
1.250e-02,1.2,0.568
1.251e-02,1.48,0.528
1.253e-02,1.68,0.48
1.254e-02,1.88,0.432
1.256e-02,2.04,0.376
1.258e-02,2.16,0.32
1.259e-02,2.32,0.256
1.261e-02,2.36,0.2
1.262e-02,2.4,0.136
1.264e-02,2.44,0.072
1.266e-02,2.48,0.008
1.267e-02,2.44,-0.048
1.269e-02,2.48,-0.104
1.270e-02,2.44,-0.16
1.272e-02,2.4,-0.224
1.274e-02,2.4,-0.28
1.275e-02,2.4,-0.344
1.277e-02,2.4,-0.4
1.278e-02,2.4,-0.456
1.280e-02,2.36,-0.512
1.282e-02,2.36,-0.576
1.283e-02,2.28,-0.632
1.285e-02,2.24,-0.688
1.286e-02,2.12,-0.736
1.288e-02,1.96,-0.784
1.290e-02,1.8,-0.824
1.291e-02,1.56,-0.856
1.293e-02,1.28,-0.88
1.294e-02,1,-0.896
1.296e-02,0.64,-0.904
1.298e-02,0.28,-0.896
1.299e-02,-0.08,-0.88
1.301e-02,-0.4,-0.856
1.302e-02,-0.72,-0.824
1.304e-02,-1,-0.776
1.306e-02,-1.2,-0.728
1.307e-02,-1.32,-0.68
1.309e-02,-1.4,-0.624
1.310e-02,-1.36,-0.576
1.312e-02,-1.36,-0.528
1.314e-02,-1.24,-0.488
1.315e-02,-1.08,-0.448
1.317e-02,-0.96,-0.416
1.318e-02,-0.76,-0.4
1.320e-02,-0.52,-0.376
1.322e-02,-0.32,-0.36
1.323e-02,-0.12,-0.344
1.325e-02,0.04,-0.344
1.326e-02,0.2,-0.336
1.328e-02,0.4,-0.336
1.330e-02,0.6,-0.336
1.331e-02,0.76,-0.344
1.333e-02,0.88,-0.352
1.334e-02,1.08,-0.352
1.336e-02,1.2,-0.352
1.338e-02,1.32,-0.36
1.339e-02,1.48,-0.368
1.341e-02,1.64,-0.368
1.342e-02,1.72,-0.376
1.344e-02,1.88,-0.384
1.346e-02,1.96,-0.392
1.347e-02,2.08,-0.4
1.349e-02,2.16,-0.408
1.350e-02,2.2,-0.416
1.352e-02,2.32,-0.424
1.354e-02,2.36,-0.424
1.355e-02,2.36,-0.432
1.357e-02,2.4,-0.44
1.358e-02,2.4,-0.448
1.360e-02,2.4,-0.448
1.362e-02,2.32,-0.448
1.363e-02,2.24,-0.448
1.365e-02,2.16,-0.448
1.366e-02,2.04,-0.44
1.368e-02,1.92,-0.44
1.370e-02,1.72,-0.432
1.371e-02,1.6,-0.416
1.373e-02,1.44,-0.408
1.374e-02,1.24,-0.384
1.376e-02,1.08,-0.376
1.378e-02,0.88,-0.352
1.379e-02,0.72,-0.336
1.381e-02,0.52,-0.312
1.382e-02,0.36,-0.288
1.384e-02,0.16,-0.264
1.386e-02,0.04,-0.24
1.387e-02,-0.12,-0.216
1.389e-02,-0.28,-0.2
1.390e-02,-0.36,-0.176
1.392e-02,-0.48,-0.152
1.394e-02,-0.56,-0.136
1.395e-02,-0.64,-0.128
1.397e-02,-0.72,-0.112
1.398e-02,-0.76,-0.112
1.400e-02,-0.84,-0.096
1.402e-02,-0.88,-0.088
1.403e-02,-0.92,-0.088
1.405e-02,-0.96,-0.08
1.406e-02,-1,-0.08
1.408e-02,-1.04,-0.08
1.410e-02,-1.04,-0.08
1.411e-02,-1.08,-0.08
1.413e-02,-1.12,-0.088
1.414e-02,-1.12,-0.088
1.416e-02,-1.16,-0.088
1.418e-02,-1.16,-0.08
1.419e-02,-1.2,-0.08
1.421e-02,-1.24,-0.088
1.422e-02,-1.2,-0.072
1.424e-02,-1.24,-0.064
1.426e-02,-1.28,-0.056
1.427e-02,-1.28,-0.04
1.429e-02,-1.32,-0.032
1.430e-02,-1.32,-0.016
1.432e-02,-1.32,0
1.434e-02,-1.32,0.024
1.435e-02,-1.32,0.048
1.437e-02,-1.36,0.08
1.438e-02,-1.32,0.104
1.440e-02,-1.32,0.136
1.442e-02,-1.32,0.176
1.443e-02,-1.32,0.208
1.445e-02,-1.28,0.24
1.446e-02,-1.24,0.28
1.448e-02,-1.24,0.312
1.450e-02,-1.2,0.352
1.451e-02,-1.12,0.384
1.453e-02,-1.08,0.424
1.454e-02,-1,0.456
1.456e-02,-0.88,0.488
1.458e-02,-0.72,0.52
1.459e-02,-0.6,0.544
1.461e-02,-0.4,0.56
1.462e-02,-0.2,0.576
1.464e-02,0,0.584
1.466e-02,0.24,0.584
1.467e-02,0.52,0.576
1.469e-02,0.72,0.56
1.470e-02,0.96,0.536
1.472e-02,1.24,0.52
1.474e-02,1.44,0.472
1.475e-02,1.68,0.432
1.477e-02,1.84,0.384
1.478e-02,2,0.336
1.480e-02,2.12,0.288
1.482e-02,2.24,0.224
1.483e-02,2.32,0.176
1.485e-02,2.4,0.112
1.486e-02,2.44,0.048
1.488e-02,2.4,0
1.490e-02,2.44,-0.064
1.491e-02,2.44,-0.12
1.493e-02,2.44,-0.176
1.494e-02,2.44,-0.24
1.496e-02,2.44,-0.296
1.498e-02,2.44,-0.352
1.499e-02,2.4,-0.416
1.501e-02,2.4,-0.472
1.502e-02,2.36,-0.528
1.504e-02,2.32,-0.584
1.506e-02,2.2,-0.632
1.507e-02,2.08,-0.688
1.509e-02,1.92,-0.728
1.510e-02,1.8,-0.776
1.512e-02,1.56,-0.808
1.514e-02,1.32,-0.832
1.515e-02,1,-0.856
1.517e-02,0.72,-0.864
1.518e-02,0.36,-0.856
1.520e-02,0,-0.848
1.522e-02,-0.32,-0.824
1.523e-02,-0.6,-0.792
1.525e-02,-0.92,-0.752
1.526e-02,-1.16,-0.712
1.528e-02,-1.28,-0.664
1.530e-02,-1.36,-0.616
1.531e-02,-1.44,-0.568
1.533e-02,-1.44,-0.52
1.534e-02,-1.32,-0.48
1.536e-02,-1.2,-0.448
1.538e-02,-1.08,-0.4
1.539e-02,-0.92,-0.376
1.541e-02,-0.8,-0.36
1.542e-02,-0.52,-0.336
1.544e-02,-0.36,-0.32
1.546e-02,-0.24,-0.312
1.547e-02,-0.08,-0.304
1.549e-02,0.12,-0.304
1.550e-02,0.28,-0.296
1.552e-02,0.48,-0.296
1.554e-02,0.6,-0.296
1.555e-02,0.76,-0.296
1.557e-02,0.88,-0.304
1.558e-02,1,-0.296
1.560e-02,1.16,-0.296
1.562e-02,1.28,-0.304
1.563e-02,1.4,-0.312
1.565e-02,1.48,-0.312
1.566e-02,1.6,-0.312
1.568e-02,1.76,-0.32
1.570e-02,1.84,-0.32
1.571e-02,1.92,-0.328
1.573e-02,2.04,-0.328
1.574e-02,2.12,-0.336
1.576e-02,2.2,-0.344
1.578e-02,2.24,-0.352
1.579e-02,2.32,-0.36
1.581e-02,2.36,-0.368
1.582e-02,2.4,-0.376
1.584e-02,2.36,-0.384
1.586e-02,2.4,-0.392
1.587e-02,2.4,-0.408
1.589e-02,2.36,-0.416
1.590e-02,2.28,-0.416
1.592e-02,2.24,-0.424
1.594e-02,2.16,-0.44
1.595e-02,2.04,-0.44
1.597e-02,1.96,-0.448
1.598e-02,1.84,-0.456

