Model,TBS2102B
Firmware Version,v1.31.14

Point Format,Y,
Horizontal Units,S,
Horizontal Scale,0.002,
Sample Interval,1.6e-05,
Filter Frequency,2e+08,
Record Length,2000,
Gating,0.0% to 100.0%,0.0% to 100.0%
Probe Attenuation,1,1
Vertical Units,V,V
Vertical Offset,0,0
Vertical Scale,1,0.2
Label,,
TIME,CH1,CH2
-1.600e-02,-1.48,-0.104
-1.598e-02,-1.48,-0.08
-1.597e-02,-1.48,-0.056
-1.595e-02,-1.48,-0.04
-1.594e-02,-1.44,-0.024
-1.592e-02,-1.44,-0.008
-1.590e-02,-1.4,0.008
-1.589e-02,-1.4,0.024
-1.587e-02,-1.4,0.048
-1.586e-02,-1.4,0.064
-1.584e-02,-1.4,0.088
-1.582e-02,-1.4,0.112
-1.581e-02,-1.4,0.136
-1.579e-02,-1.4,0.16
-1.578e-02,-1.44,0.184
-1.576e-02,-1.44,0.216
-1.574e-02,-1.44,0.248
-1.573e-02,-1.44,0.288
-1.571e-02,-1.48,0.32
-1.570e-02,-1.48,0.352
-1.568e-02,-1.44,0.392
-1.566e-02,-1.48,0.424
-1.565e-02,-1.4,0.464
-1.563e-02,-1.36,0.496
-1.562e-02,-1.32,0.536
-1.560e-02,-1.28,0.568
-1.558e-02,-1.16,0.6
-1.557e-02,-1,0.632
-1.555e-02,-0.88,0.648
-1.554e-02,-0.68,0.664
-1.552e-02,-0.44,0.672
-1.550e-02,-0.2,0.672
-1.549e-02,0.08,0.664
-1.547e-02,0.36,0.648
-1.546e-02,0.64,0.624
-1.544e-02,0.96,0.592
-1.542e-02,1.2,0.552
-1.541e-02,1.48,0.504
-1.539e-02,1.72,0.448
-1.538e-02,1.92,0.392
-1.536e-02,2.12,0.328
-1.534e-02,2.2,0.272
-1.533e-02,2.32,0.2
-1.531e-02,2.4,0.136
-1.530e-02,2.44,0.064
-1.528e-02,2.44,0
-1.526e-02,2.48,-0.056
-1.525e-02,2.44,-0.12
-1.523e-02,2.44,-0.184
-1.522e-02,2.44,-0.24
-1.520e-02,2.4,-0.304
-1.518e-02,2.44,-0.368
-1.517e-02,2.4,-0.416
-1.515e-02,2.36,-0.472
-1.514e-02,2.36,-0.528
-1.512e-02,2.32,-0.584
-1.510e-02,2.24,-0.632
-1.509e-02,2.12,-0.68
-1.507e-02,2,-0.728
-1.506e-02,1.84,-0.768
-1.504e-02,1.64,-0.8
-1.502e-02,1.36,-0.824
-1.501e-02,1.08,-0.84
-1.499e-02,0.76,-0.84
-1.498e-02,0.48,-0.832
-1.496e-02,0.08,-0.816
-1.494e-02,-0.24,-0.792
-1.493e-02,-0.52,-0.76
-1.491e-02,-0.8,-0.72
-1.490e-02,-1.08,-0.672
-1.488e-02,-1.28,-0.624
-1.486e-02,-1.4,-0.568
-1.485e-02,-1.4,-0.512
-1.483e-02,-1.44,-0.456
-1.482e-02,-1.44,-0.416
-1.480e-02,-1.32,-0.368
-1.478e-02,-1.24,-0.328
-1.477e-02,-1.12,-0.304
-1.475e-02,-1,-0.264
-1.474e-02,-0.84,-0.24
-1.472e-02,-0.68,-0.216
-1.470e-02,-0.6,-0.2
-1.469e-02,-0.48,-0.176
-1.467e-02,-0.36,-0.16
-1.466e-02,-0.2,-0.144
-1.464e-02,-0.16,-0.136
-1.462e-02,-0.08,-0.12
-1.461e-02,0,-0.112
-1.459e-02,0.08,-0.104
-1.458e-02,0.2,-0.088
-1.456e-02,0.24,-0.08
-1.454e-02,0.28,-0.064
-1.453e-02,0.32,-0.048
-1.451e-02,0.36,-0.04
-1.450e-02,0.4,-0.024
-1.448e-02,0.44,-0.008
-1.446e-02,0.48,0.008
-1.445e-02,0.48,0.024
-1.443e-02,0.48,0.032
-1.442e-02,0.52,0.048
-1.440e-02,0.56,0.064
-1.438e-02,0.48,0.088
-1.437e-02,0.48,0.104
-1.435e-02,0.52,0.112
-1.434e-02,0.44,0.136
-1.432e-02,0.4,0.144
-1.430e-02,0.4,0.168
-1.429e-02,0.36,0.176
-1.427e-02,0.28,0.192
-1.426e-02,0.24,0.2
-1.424e-02,0.16,0.216
-1.422e-02,0.08,0.232
-1.421e-02,-0.04,0.24
-1.419e-02,-0.08,0.256
-1.418e-02,-0.16,0.264
-1.416e-02,-0.28,0.28
-1.414e-02,-0.4,0.288
-1.413e-02,-0.48,0.312
-1.411e-02,-0.56,0.312
-1.410e-02,-0.68,0.328
-1.408e-02,-0.8,0.328
-1.406e-02,-0.88,0.344
-1.405e-02,-1,0.344
-1.403e-02,-1.08,0.352
-1.402e-02,-1.16,0.36
-1.400e-02,-1.24,0.368
-1.398e-02,-1.32,0.376
-1.397e-02,-1.36,0.376
-1.395e-02,-1.4,0.384
-1.394e-02,-1.44,0.376
-1.392e-02,-1.44,0.376
-1.390e-02,-1.44,0.368
-1.389e-02,-1.44,0.368
-1.387e-02,-1.44,0.36
-1.386e-02,-1.4,0.344
-1.384e-02,-1.32,0.336
-1.382e-02,-1.24,0.32
-1.381e-02,-1.2,0.304
-1.379e-02,-1.08,0.28
-1.378e-02,-1,0.264
-1.376e-02,-0.92,0.232
-1.374e-02,-0.8,0.216
-1.373e-02,-0.68,0.192
-1.371e-02,-0.56,0.168
-1.370e-02,-0.52,0.136
-1.368e-02,-0.4,0.12
-1.366e-02,-0.28,0.088
-1.365e-02,-0.28,0.064
-1.363e-02,-0.2,0.04
-1.362e-02,-0.16,0.024
-1.360e-02,-0.08,0.008
-1.358e-02,-0.08,-0.008
-1.357e-02,-0.04,-0.016
-1.355e-02,-0.04,-0.024
-1.354e-02,0,-0.024
-1.352e-02,-0.08,-0.032
-1.350e-02,-0.08,-0.016
-1.349e-02,-0.04,-0.016
-1.347e-02,-0.08,0
-1.346e-02,-0.08,0.008
-1.344e-02,-0.12,0.024
-1.342e-02,-0.08,0.048
-1.341e-02,-0.08,0.064
-1.339e-02,-0.12,0.088
-1.338e-02,-0.12,0.112
-1.336e-02,-0.08,0.136
-1.334e-02,-0.08,0.168
-1.333e-02,0,0.184
-1.331e-02,0.08,0.208
-1.330e-02,0.08,0.224
-1.328e-02,0.12,0.248
-1.326e-02,0.24,0.256
-1.325e-02,0.36,0.272
-1.323e-02,0.4,0.28
-1.322e-02,0.52,0.288
-1.320e-02,0.68,0.28
-1.318e-02,0.76,0.272
-1.317e-02,0.84,0.264
-1.315e-02,1,0.248
-1.314e-02,1.16,0.232
-1.312e-02,1.2,0.208
-1.310e-02,1.32,0.176
-1.309e-02,1.48,0.144
-1.307e-02,1.56,0.112
-1.306e-02,1.6,0.072
-1.304e-02,1.68,0.024
-1.302e-02,1.76,-0.016
-1.301e-02,1.76,-0.064
-1.299e-02,1.8,-0.104
-1.298e-02,1.8,-0.152
-1.296e-02,1.84,-0.2
-1.294e-02,1.76,-0.256
-1.293e-02,1.72,-0.296
-1.291e-02,1.72,-0.344
-1.290e-02,1.6,-0.392
-1.288e-02,1.52,-0.424
-1.286e-02,1.4,-0.464
-1.285e-02,1.24,-0.496
-1.283e-02,1.16,-0.528
-1.282e-02,0.92,-0.552
-1.280e-02,0.68,-0.568
-1.278e-02,0.48,-0.576
-1.277e-02,0.28,-0.584
-1.275e-02,0.04,-0.576
-1.274e-02,-0.2,-0.568
-1.272e-02,-0.48,-0.552
-1.270e-02,-0.64,-0.528
-1.269e-02,-0.88,-0.504
-1.267e-02,-1.04,-0.472
-1.266e-02,-1.2,-0.432
-1.264e-02,-1.32,-0.4
-1.262e-02,-1.4,-0.368
-1.261e-02,-1.48,-0.32
-1.259e-02,-1.48,-0.28
-1.258e-02,-1.48,-0.248
-1.256e-02,-1.48,-0.2
-1.254e-02,-1.44,-0.168
-1.253e-02,-1.4,-0.128
-1.251e-02,-1.4,-0.096
-1.250e-02,-1.32,-0.064
-1.248e-02,-1.32,-0.032
-1.246e-02,-1.28,0
-1.245e-02,-1.24,0.032
-1.243e-02,-1.24,0.064
-1.242e-02,-1.2,0.096
-1.240e-02,-1.2,0.128
-1.238e-02,-1.2,0.168
-1.237e-02,-1.2,0.2
-1.235e-02,-1.2,0.24
-1.234e-02,-1.24,0.28
-1.232e-02,-1.28,0.32
-1.230e-02,-1.32,0.36
-1.229e-02,-1.32,0.4
-1.227e-02,-1.36,0.448
-1.226e-02,-1.44,0.496
-1.224e-02,-1.44,0.536
-1.222e-02,-1.4,0.584
-1.221e-02,-1.44,0.632
-1.219e-02,-1.4,0.664
-1.218e-02,-1.28,0.704
-1.216e-02,-1.2,0.736
-1.214e-02,-1.08,0.768
-1.213e-02,-0.88,0.784
-1.211e-02,-0.64,0.792
-1.210e-02,-0.36,0.8
-1.208e-02,-0.08,0.784
-1.206e-02,0.28,0.768
-1.205e-02,0.6,0.736
-1.203e-02,0.96,0.696
-1.202e-02,1.28,0.64
-1.200e-02,1.56,0.584
-1.198e-02,1.8,0.504
-1.197e-02,2,0.432
-1.195e-02,2.2,0.352
-1.194e-02,2.32,0.272
-1.192e-02,2.36,0.192
-1.190e-02,2.44,0.112
-1.189e-02,2.48,0.024
-1.187e-02,2.44,-0.048
-1.186e-02,2.44,-0.128
-1.184e-02,2.48,-0.2
-1.182e-02,2.48,-0.28
-1.181e-02,2.4,-0.344
-1.179e-02,2.4,-0.408
-1.178e-02,2.4,-0.472
-1.176e-02,2.4,-0.544
-1.174e-02,2.36,-0.608
-1.173e-02,2.32,-0.664
-1.171e-02,2.28,-0.72
-1.170e-02,2.2,-0.784
-1.168e-02,2.08,-0.832
-1.166e-02,1.88,-0.872
-1.165e-02,1.68,-0.904
-1.163e-02,1.44,-0.928
-1.162e-02,1.08,-0.944
-1.160e-02,0.76,-0.944
-1.158e-02,0.36,-0.936
-1.157e-02,0.04,-0.912
-1.155e-02,-0.32,-0.88
-1.154e-02,-0.68,-0.832
-1.152e-02,-0.96,-0.784
-1.150e-02,-1.16,-0.728
-1.149e-02,-1.32,-0.664
-1.147e-02,-1.44,-0.6
-1.146e-02,-1.44,-0.544
-1.144e-02,-1.32,-0.488
-1.142e-02,-1.24,-0.432
-1.141e-02,-1.16,-0.384
-1.139e-02,-0.92,-0.344
-1.138e-02,-0.76,-0.312
-1.136e-02,-0.6,-0.288
-1.134e-02,-0.44,-0.256
-1.133e-02,-0.24,-0.232
-1.131e-02,-0.08,-0.224
-1.130e-02,0.04,-0.208
-1.128e-02,0.16,-0.192
-1.126e-02,0.32,-0.184
-1.125e-02,0.4,-0.176
-1.123e-02,0.52,-0.168
-1.122e-02,0.6,-0.168
-1.120e-02,0.72,-0.168
-1.118e-02,0.8,-0.152
-1.117e-02,0.84,-0.144
-1.115e-02,0.96,-0.136
-1.114e-02,1,-0.144
-1.112e-02,1.12,-0.128
-1.110e-02,1.16,-0.128
-1.109e-02,1.2,-0.128
-1.107e-02,1.32,-0.128
-1.106e-02,1.32,-0.12
-1.104e-02,1.36,-0.12
-1.102e-02,1.48,-0.128
-1.101e-02,1.48,-0.128
-1.099e-02,1.52,-0.128
-1.098e-02,1.6,-0.136
-1.096e-02,1.64,-0.144
-1.094e-02,1.72,-0.16
-1.093e-02,1.76,-0.168
-1.091e-02,1.8,-0.184
-1.090e-02,1.84,-0.2
-1.088e-02,1.92,-0.224
-1.086e-02,1.96,-0.248
-1.085e-02,2.04,-0.28
-1.083e-02,2.04,-0.304
-1.082e-02,2.16,-0.336
-1.080e-02,2.16,-0.368
-1.078e-02,2.24,-0.408
-1.077e-02,2.28,-0.448
-1.075e-02,2.32,-0.488
-1.074e-02,2.36,-0.536
-1.072e-02,2.4,-0.576
-1.070e-02,2.36,-0.624
-1.069e-02,2.36,-0.672
-1.067e-02,2.32,-0.712
-1.066e-02,2.16,-0.752
-1.064e-02,2.08,-0.8
-1.062e-02,1.96,-0.824
-1.061e-02,1.68,-0.856
-1.059e-02,1.36,-0.872
-1.058e-02,1.08,-0.888
-1.056e-02,0.76,-0.888
-1.054e-02,0.4,-0.872
-1.053e-02,0.04,-0.856
-1.051e-02,-0.32,-0.824
-1.050e-02,-0.6,-0.784
-1.048e-02,-0.92,-0.736
-1.046e-02,-1.16,-0.688
-1.045e-02,-1.32,-0.632
-1.043e-02,-1.4,-0.584
-1.042e-02,-1.44,-0.528
-1.040e-02,-1.4,-0.472
-1.038e-02,-1.36,-0.424
-1.037e-02,-1.24,-0.384
-1.035e-02,-1.12,-0.352
-1.034e-02,-1,-0.32
-1.032e-02,-0.8,-0.296
-1.030e-02,-0.64,-0.272
-1.029e-02,-0.48,-0.256
-1.027e-02,-0.4,-0.248
-1.026e-02,-0.24,-0.232
-1.024e-02,-0.08,-0.224
-1.022e-02,0.04,-0.216
-1.021e-02,0.12,-0.216
-1.019e-02,0.28,-0.216
-1.018e-02,0.4,-0.216
-1.016e-02,0.48,-0.208
-1.014e-02,0.6,-0.208
-1.013e-02,0.68,-0.208
-1.011e-02,0.84,-0.208
-1.010e-02,0.92,-0.208
-1.008e-02,0.96,-0.208
-1.006e-02,1.08,-0.208
-1.005e-02,1.2,-0.2
-1.003e-02,1.24,-0.2
-1.002e-02,1.36,-0.208
-1.000e-02,1.44,-0.208
-9.984e-03,1.52,-0.208
-9.968e-03,1.6,-0.216
-9.952e-03,1.68,-0.224
-9.936e-03,1.76,-0.224
-9.920e-03,1.84,-0.232
-9.904e-03,1.88,-0.24
-9.888e-03,1.96,-0.256
-9.872e-03,2.04,-0.264
-9.856e-03,2.12,-0.28
-9.840e-03,2.16,-0.304
-9.824e-03,2.2,-0.32
-9.808e-03,2.28,-0.336
-9.792e-03,2.32,-0.36
-9.776e-03,2.36,-0.384
-9.760e-03,2.36,-0.408
-9.744e-03,2.36,-0.432
-9.728e-03,2.4,-0.464
-9.712e-03,2.36,-0.496
-9.696e-03,2.36,-0.52
-9.680e-03,2.32,-0.552
-9.664e-03,2.24,-0.584
-9.648e-03,2.12,-0.608
-9.632e-03,2,-0.632
-9.616e-03,1.84,-0.648
-9.600e-03,1.64,-0.672
-9.584e-03,1.36,-0.672
-9.568e-03,1.12,-0.688
-9.552e-03,0.88,-0.68
-9.536e-03,0.6,-0.68
-9.520e-03,0.32,-0.664
-9.504e-03,0,-0.64
-9.488e-03,-0.28,-0.616
-9.472e-03,-0.56,-0.584
-9.456e-03,-0.8,-0.544
-9.440e-03,-1,-0.512
-9.424e-03,-1.16,-0.472
-9.408e-03,-1.32,-0.416
-9.392e-03,-1.4,-0.384
-9.376e-03,-1.44,-0.344
-9.360e-03,-1.48,-0.304
-9.344e-03,-1.48,-0.264
-9.328e-03,-1.48,-0.232
-9.312e-03,-1.44,-0.2
-9.296e-03,-1.4,-0.176
-9.280e-03,-1.32,-0.152
-9.264e-03,-1.28,-0.128
-9.248e-03,-1.24,-0.112
-9.232e-03,-1.16,-0.088
-9.216e-03,-1.16,-0.072
-9.200e-03,-1.12,-0.056
-9.184e-03,-1.04,-0.04
-9.168e-03,-1,-0.024
-9.152e-03,-1,-0.008
-9.136e-03,-1,0.008
-9.120e-03,-0.92,0.024
-9.104e-03,-0.92,0.056
-9.088e-03,-0.92,0.072
-9.072e-03,-0.96,0.104
-9.056e-03,-0.96,0.128
-9.040e-03,-0.96,0.16
-9.024e-03,-1,0.192
-9.008e-03,-1,0.216
-8.992e-03,-1.04,0.256
-8.976e-03,-1.08,0.288
-8.960e-03,-1.16,0.336
-8.944e-03,-1.2,0.368
-8.928e-03,-1.24,0.416
-8.912e-03,-1.28,0.464
-8.896e-03,-1.36,0.504
-8.880e-03,-1.36,0.552
-8.864e-03,-1.4,0.6
-8.848e-03,-1.44,0.64
-8.832e-03,-1.4,0.68
-8.816e-03,-1.36,0.728
-8.800e-03,-1.32,0.76
-8.784e-03,-1.2,0.792
-8.768e-03,-1,0.808
-8.752e-03,-0.8,0.824
-8.736e-03,-0.56,0.832
-8.720e-03,-0.24,0.816
-8.704e-03,0.08,0.808
-8.688e-03,0.4,0.768
-8.672e-03,0.8,0.728
-8.656e-03,1.16,0.68
-8.640e-03,1.44,0.608
-8.624e-03,1.72,0.536
-8.608e-03,1.96,0.456
-8.592e-03,2.16,0.376
-8.576e-03,2.32,0.288
-8.560e-03,2.4,0.208
-8.544e-03,2.44,0.112
-8.528e-03,2.48,0.024
-8.512e-03,2.44,-0.056
-8.496e-03,2.44,-0.136
-8.480e-03,2.44,-0.216
-8.464e-03,2.4,-0.296
-8.448e-03,2.44,-0.368
-8.432e-03,2.4,-0.44
-8.416e-03,2.4,-0.512
-8.400e-03,2.4,-0.576
-8.384e-03,2.36,-0.64
-8.368e-03,2.32,-0.712
-8.352e-03,2.28,-0.768
-8.336e-03,2.16,-0.816
-8.320e-03,2,-0.864
-8.304e-03,1.84,-0.912
-8.288e-03,1.6,-0.936
-8.272e-03,1.32,-0.952
-8.256e-03,0.96,-0.968
-8.240e-03,0.6,-0.96
-8.224e-03,0.2,-0.944
-8.208e-03,-0.16,-0.912
-8.192e-03,-0.52,-0.872
-8.176e-03,-0.84,-0.824
-8.160e-03,-1.08,-0.768
-8.144e-03,-1.28,-0.704
-8.128e-03,-1.4,-0.64
-8.112e-03,-1.4,-0.576
-8.096e-03,-1.36,-0.52
-8.080e-03,-1.24,-0.456
-8.064e-03,-1.16,-0.4
-8.048e-03,-1,-0.36
-8.032e-03,-0.8,-0.32
-8.016e-03,-0.6,-0.296
-8.000e-03,-0.48,-0.264
-7.984e-03,-0.32,-0.232
-7.968e-03,-0.08,-0.216
-7.952e-03,0.08,-0.2
-7.936e-03,0.16,-0.184
-7.920e-03,0.32,-0.184
-7.904e-03,0.4,-0.168
-7.888e-03,0.52,-0.16
-7.872e-03,0.6,-0.152
-7.856e-03,0.68,-0.144
-7.840e-03,0.8,-0.144
-7.824e-03,0.84,-0.128
-7.808e-03,0.92,-0.12
-7.792e-03,0.96,-0.112
-7.776e-03,1.04,-0.112
-7.760e-03,1.08,-0.104
-7.744e-03,1.12,-0.104
-7.728e-03,1.24,-0.096
-7.712e-03,1.24,-0.096
-7.696e-03,1.28,-0.096
-7.680e-03,1.4,-0.104
-7.664e-03,1.4,-0.096
-7.648e-03,1.48,-0.096
-7.632e-03,1.48,-0.104
-7.616e-03,1.52,-0.112
-7.600e-03,1.6,-0.12
-7.584e-03,1.6,-0.128
-7.568e-03,1.64,-0.144
-7.552e-03,1.68,-0.16
-7.536e-03,1.76,-0.184
-7.520e-03,1.76,-0.2
-7.504e-03,1.8,-0.232
-7.488e-03,1.88,-0.256
-7.472e-03,1.96,-0.288
-7.456e-03,2.04,-0.32
-7.440e-03,2.04,-0.368
-7.424e-03,2.12,-0.4
-7.408e-03,2.24,-0.448
-7.392e-03,2.24,-0.488
-7.376e-03,2.28,-0.536
-7.360e-03,2.36,-0.584
-7.344e-03,2.36,-0.632
-7.328e-03,2.36,-0.68
-7.312e-03,2.32,-0.736
-7.296e-03,2.28,-0.784
-7.280e-03,2.2,-0.824
-7.264e-03,2.04,-0.872
-7.248e-03,1.8,-0.904
-7.232e-03,1.6,-0.928
-7.216e-03,1.28,-0.944
-7.200e-03,0.92,-0.944
-7.184e-03,0.52,-0.944
-7.168e-03,0.16,-0.92
-7.152e-03,-0.2,-0.896
-7.136e-03,-0.52,-0.856
-7.120e-03,-0.88,-0.808
-7.104e-03,-1.12,-0.752
-7.088e-03,-1.28,-0.696
-7.072e-03,-1.36,-0.632
-7.056e-03,-1.44,-0.576
-7.040e-03,-1.4,-0.52
-7.024e-03,-1.28,-0.464
-7.008e-03,-1.16,-0.424
-6.992e-03,-1.04,-0.384
-6.976e-03,-0.84,-0.352
-6.960e-03,-0.64,-0.328
-6.944e-03,-0.44,-0.312
-6.928e-03,-0.28,-0.288
-6.912e-03,-0.12,-0.288
-6.896e-03,0.04,-0.272
-6.880e-03,0.2,-0.264
-6.864e-03,0.36,-0.272
-6.848e-03,0.48,-0.264
-6.832e-03,0.68,-0.264
-6.816e-03,0.76,-0.264
-6.800e-03,0.84,-0.272
-6.784e-03,0.96,-0.272
-6.768e-03,1.12,-0.272
-6.752e-03,1.24,-0.272
-6.736e-03,1.32,-0.28
-6.720e-03,1.44,-0.28
-6.704e-03,1.56,-0.288
-6.688e-03,1.64,-0.296
-6.672e-03,1.72,-0.304
-6.656e-03,1.84,-0.312
-6.640e-03,2,-0.328
-6.624e-03,2.04,-0.328
-6.608e-03,2.08,-0.344
-6.592e-03,2.2,-0.352
-6.576e-03,2.28,-0.368
-6.560e-03,2.32,-0.376
-6.544e-03,2.36,-0.392
-6.528e-03,2.4,-0.416
-6.512e-03,2.4,-0.424
-6.496e-03,2.4,-0.44
-6.480e-03,2.36,-0.456
-6.464e-03,2.36,-0.472
-6.448e-03,2.32,-0.488
-6.432e-03,2.2,-0.504
-6.416e-03,2.08,-0.512
-6.400e-03,2,-0.528
-6.384e-03,1.88,-0.536
-6.368e-03,1.68,-0.536
-6.352e-03,1.52,-0.536
-6.336e-03,1.28,-0.536
-6.320e-03,1.08,-0.528
-6.304e-03,0.84,-0.52
-6.288e-03,0.6,-0.512
-6.272e-03,0.36,-0.488
-6.256e-03,0.12,-0.456
-6.240e-03,-0.08,-0.432
-6.224e-03,-0.36,-0.408
-6.208e-03,-0.52,-0.376
-6.192e-03,-0.68,-0.344
-6.176e-03,-0.88,-0.312
-6.160e-03,-1.04,-0.28
-6.144e-03,-1.12,-0.248
-6.128e-03,-1.2,-0.216
-6.112e-03,-1.28,-0.192
-6.096e-03,-1.36,-0.16
-6.080e-03,-1.4,-0.144
-6.064e-03,-1.44,-0.112
-6.048e-03,-1.44,-0.096
-6.032e-03,-1.48,-0.072
-6.016e-03,-1.48,-0.056
-6.000e-03,-1.48,-0.032
-5.984e-03,-1.48,-0.016
-5.968e-03,-1.48,-0.008
-5.952e-03,-1.48,0.008
-5.936e-03,-1.48,0.024
-5.920e-03,-1.48,0.048
-5.904e-03,-1.44,0.056
-5.888e-03,-1.48,0.08
-5.872e-03,-1.48,0.096
-5.856e-03,-1.44,0.112
-5.840e-03,-1.48,0.128
-5.824e-03,-1.48,0.152
-5.808e-03,-1.48,0.176
-5.792e-03,-1.48,0.2
-5.776e-03,-1.44,0.224
-5.760e-03,-1.44,0.256
-5.744e-03,-1.44,0.28
-5.728e-03,-1.4,0.312
-5.712e-03,-1.36,0.344
-5.696e-03,-1.32,0.368
-5.680e-03,-1.28,0.4
-5.664e-03,-1.2,0.432
-5.648e-03,-1.12,0.456
-5.632e-03,-1.08,0.488
-5.616e-03,-0.92,0.504
-5.600e-03,-0.72,0.536
-5.584e-03,-0.64,0.536
-5.568e-03,-0.44,0.552
-5.552e-03,-0.2,0.56
-5.536e-03,-0.04,0.56
-5.520e-03,0.2,0.552
-5.504e-03,0.48,0.536
-5.488e-03,0.72,0.512
-5.472e-03,0.96,0.488
-5.456e-03,1.2,0.456
-5.440e-03,1.4,0.416
-5.424e-03,1.6,0.376
-5.408e-03,1.76,0.336
-5.392e-03,2,0.28
-5.376e-03,2.12,0.224
-5.360e-03,2.16,0.168
-5.344e-03,2.24,0.112
-5.328e-03,2.32,0.056
-5.312e-03,2.36,0
-5.296e-03,2.36,-0.056
-5.280e-03,2.4,-0.104
-5.264e-03,2.4,-0.16
-5.248e-03,2.36,-0.216
-5.232e-03,2.36,-0.272
-5.216e-03,2.36,-0.328
-5.200e-03,2.36,-0.368
-5.184e-03,2.28,-0.424
-5.168e-03,2.24,-0.472
-5.152e-03,2.2,-0.52
-5.136e-03,2.08,-0.56
-5.120e-03,1.96,-0.6
-5.104e-03,1.8,-0.64
-5.088e-03,1.64,-0.672
-5.072e-03,1.44,-0.696
-5.056e-03,1.2,-0.72
-5.040e-03,0.92,-0.728
-5.024e-03,0.64,-0.728
-5.008e-03,0.4,-0.728
-4.992e-03,0.08,-0.712
-4.976e-03,-0.24,-0.688
-4.960e-03,-0.52,-0.664
-4.944e-03,-0.76,-0.632
-4.928e-03,-1,-0.592
-4.912e-03,-1.2,-0.544
-4.896e-03,-1.32,-0.504
-4.880e-03,-1.4,-0.456
-4.864e-03,-1.44,-0.408
-4.848e-03,-1.48,-0.368
-4.832e-03,-1.44,-0.328
-4.816e-03,-1.4,-0.296
-4.800e-03,-1.32,-0.256
-4.784e-03,-1.28,-0.224
-4.768e-03,-1.16,-0.2
-4.752e-03,-1.04,-0.16
-4.736e-03,-1,-0.136
-4.720e-03,-0.92,-0.128
-4.704e-03,-0.84,-0.096
-4.688e-03,-0.72,-0.088
-4.672e-03,-0.68,-0.056
-4.656e-03,-0.64,-0.04
-4.640e-03,-0.56,-0.024
-4.624e-03,-0.52,0
-4.608e-03,-0.52,0.016
-4.592e-03,-0.52,0.04
-4.576e-03,-0.48,0.064
-4.560e-03,-0.48,0.088
-4.544e-03,-0.52,0.12
-4.528e-03,-0.52,0.144
-4.512e-03,-0.52,0.176
-4.496e-03,-0.56,0.2
-4.480e-03,-0.64,0.24
-4.464e-03,-0.68,0.28
-4.448e-03,-0.72,0.312
-4.432e-03,-0.8,0.352
-4.416e-03,-0.88,0.392
-4.400e-03,-0.96,0.432
-4.384e-03,-1.04,0.48
-4.368e-03,-1.16,0.528
-4.352e-03,-1.2,0.568
-4.336e-03,-1.28,0.608
-4.320e-03,-1.32,0.656
-4.304e-03,-1.4,0.696
-4.288e-03,-1.4,0.736
-4.272e-03,-1.36,0.768
-4.256e-03,-1.36,0.792
-4.240e-03,-1.24,0.816
-4.224e-03,-1.04,0.832
-4.208e-03,-0.88,0.848
-4.192e-03,-0.56,0.832
-4.176e-03,-0.28,0.816
-4.160e-03,0.04,0.784
-4.144e-03,0.4,0.744
-4.128e-03,0.76,0.68
-4.112e-03,1.12,0.616
-4.096e-03,1.4,0.536
-4.080e-03,1.72,0.448
-4.064e-03,1.96,0.36
-4.048e-03,2.12,0.256
-4.032e-03,2.24,0.16
-4.016e-03,2.36,0.056
-4.000e-03,2.44,-0.032
-3.984e-03,2.44,-0.128
-3.968e-03,2.48,-0.224
-3.952e-03,2.48,-0.32
-3.936e-03,2.48,-0.4
-3.920e-03,2.48,-0.488
-3.904e-03,2.4,-0.568
-3.888e-03,2.36,-0.64
-3.872e-03,2.28,-0.712
-3.856e-03,2.2,-0.768
-3.840e-03,2.08,-0.824
-3.824e-03,1.88,-0.872
-3.808e-03,1.68,-0.912
-3.792e-03,1.4,-0.936
-3.776e-03,1.04,-0.952
-3.760e-03,0.72,-0.952
-3.744e-03,0.36,-0.936
-3.728e-03,0,-0.912
-3.712e-03,-0.4,-0.88
-3.696e-03,-0.72,-0.832
-3.680e-03,-1,-0.776
-3.664e-03,-1.2,-0.712
-3.648e-03,-1.36,-0.64
-3.632e-03,-1.4,-0.568
-3.616e-03,-1.4,-0.504
-3.600e-03,-1.36,-0.448
-3.584e-03,-1.24,-0.376
-3.568e-03,-1.12,-0.328
-3.552e-03,-0.92,-0.28
-3.536e-03,-0.8,-0.232
-3.520e-03,-0.68,-0.2
-3.504e-03,-0.48,-0.168
-3.488e-03,-0.32,-0.128
-3.472e-03,-0.24,-0.104
-3.456e-03,-0.16,-0.08
-3.440e-03,-0.04,-0.056
-3.424e-03,0.04,-0.032
-3.408e-03,0.08,-0.008
-3.392e-03,0.08,0
-3.376e-03,0.16,0.024
-3.360e-03,0.2,0.04
-3.344e-03,0.2,0.064
-3.328e-03,0.2,0.08
-3.312e-03,0.24,0.104
-3.296e-03,0.2,0.128
-3.280e-03,0.16,0.152
-3.264e-03,0.12,0.176
-3.248e-03,0.12,0.2
-3.232e-03,0,0.224
-3.216e-03,-0.08,0.248
-3.200e-03,-0.08,0.28
-3.184e-03,-0.2,0.304
-3.168e-03,-0.32,0.328
-3.152e-03,-0.4,0.352
-3.136e-03,-0.48,0.376
-3.120e-03,-0.6,0.408
-3.104e-03,-0.76,0.432
-3.088e-03,-0.8,0.456
-3.072e-03,-0.92,0.488
-3.056e-03,-1.08,0.512
-3.040e-03,-1.2,0.536
-3.024e-03,-1.28,0.56
-3.008e-03,-1.32,0.584
-2.992e-03,-1.4,0.6
-2.976e-03,-1.44,0.608
-2.960e-03,-1.4,0.624
-2.944e-03,-1.4,0.632
-2.928e-03,-1.36,0.632
-2.912e-03,-1.2,0.624
-2.896e-03,-1.08,0.608
-2.880e-03,-0.92,0.584
-2.864e-03,-0.64,0.56
-2.848e-03,-0.44,0.52
-2.832e-03,-0.2,0.472
-2.816e-03,0.04,0.416
-2.800e-03,0.28,0.352
-2.784e-03,0.52,0.28
-2.768e-03,0.72,0.208
-2.752e-03,0.96,0.128
-2.736e-03,1.16,0.048
-2.720e-03,1.24,-0.024
-2.704e-03,1.36,-0.104
-2.688e-03,1.44,-0.184
-2.672e-03,1.48,-0.256
-2.656e-03,1.4,-0.328
-2.640e-03,1.4,-0.392
-2.624e-03,1.36,-0.448
-2.608e-03,1.2,-0.496
-2.592e-03,1.08,-0.536
-2.576e-03,0.88,-0.568
-2.560e-03,0.72,-0.584
-2.544e-03,0.52,-0.592
-2.528e-03,0.28,-0.592
-2.512e-03,0,-0.576
-2.496e-03,-0.2,-0.552
-2.480e-03,-0.44,-0.52
-2.464e-03,-0.64,-0.472
-2.448e-03,-0.88,-0.416
-2.432e-03,-1.04,-0.368
-2.416e-03,-1.2,-0.304
-2.400e-03,-1.32,-0.248
-2.384e-03,-1.4,-0.176
-2.368e-03,-1.44,-0.104
-2.352e-03,-1.48,-0.04
-2.336e-03,-1.48,0.024
-2.320e-03,-1.52,0.088
-2.304e-03,-1.52,0.168
-2.288e-03,-1.48,0.224
-2.272e-03,-1.48,0.28
-2.256e-03,-1.48,0.344
-2.240e-03,-1.44,0.4
-2.224e-03,-1.44,0.456
-2.208e-03,-1.44,0.512
-2.192e-03,-1.36,0.552
-2.176e-03,-1.36,0.6
-2.160e-03,-1.28,0.648
-2.144e-03,-1.16,0.68
-2.128e-03,-1,0.712
-2.112e-03,-0.84,0.728
-2.096e-03,-0.6,0.744
-2.080e-03,-0.32,0.752
-2.064e-03,-0.08,0.744
-2.048e-03,0.2,0.72
-2.032e-03,0.56,0.696
-2.016e-03,0.84,0.656
-2.000e-03,1.16,0.608
-1.984e-03,1.44,0.544
-1.968e-03,1.72,0.48
-1.952e-03,1.92,0.408
-1.936e-03,2.08,0.328
-1.920e-03,2.28,0.248
-1.904e-03,2.36,0.168
-1.888e-03,2.4,0.08
-1.872e-03,2.48,0
-1.856e-03,2.48,-0.072
-1.840e-03,2.44,-0.152
-1.824e-03,2.44,-0.232
-1.808e-03,2.44,-0.304
-1.792e-03,2.44,-0.376
-1.776e-03,2.4,-0.44
-1.760e-03,2.4,-0.512
-1.744e-03,2.36,-0.576
-1.728e-03,2.32,-0.64
-1.712e-03,2.24,-0.704
-1.696e-03,2.12,-0.76
-1.680e-03,2.04,-0.808
-1.664e-03,1.88,-0.848
-1.648e-03,1.64,-0.88
-1.632e-03,1.36,-0.904
-1.616e-03,1,-0.92
-1.600e-03,0.72,-0.92
-1.584e-03,0.32,-0.912
-1.568e-03,-0.04,-0.888
-1.552e-03,-0.4,-0.856
-1.536e-03,-0.72,-0.816
-1.520e-03,-0.96,-0.76
-1.504e-03,-1.2,-0.704
-1.488e-03,-1.36,-0.648
-1.472e-03,-1.4,-0.584
-1.456e-03,-1.4,-0.52
-1.440e-03,-1.4,-0.464
-1.424e-03,-1.28,-0.416
-1.408e-03,-1.16,-0.368
-1.392e-03,-0.96,-0.328
-1.376e-03,-0.84,-0.288
-1.360e-03,-0.68,-0.264
-1.344e-03,-0.48,-0.24
-1.328e-03,-0.32,-0.208
-1.312e-03,-0.24,-0.192
-1.296e-03,-0.08,-0.176
-1.280e-03,0.08,-0.168
-1.264e-03,0.16,-0.152
-1.248e-03,0.24,-0.144
-1.232e-03,0.32,-0.128
-1.216e-03,0.44,-0.128
-1.200e-03,0.48,-0.112
-1.184e-03,0.52,-0.096
-1.168e-03,0.64,-0.088
-1.152e-03,0.72,-0.08
-1.136e-03,0.72,-0.072
-1.120e-03,0.76,-0.064
-1.104e-03,0.84,-0.048
-1.088e-03,0.92,-0.04
-1.072e-03,0.88,-0.032
-1.056e-03,0.92,-0.024
-1.040e-03,1,-0.016
-1.024e-03,1,-0.016
-1.008e-03,1,-0.008
-9.920e-04,1.04,0
-9.760e-04,1.08,0
-9.600e-04,1.08,0
-9.440e-04,1.04,0
-9.280e-04,1.08,0
-9.120e-04,1.08,0
-8.960e-04,1.08,-0.008
-8.800e-04,1.08,-0.008
-8.640e-04,1.12,-0.016
-8.480e-04,1.08,-0.024
-8.320e-04,1.08,-0.04
-8.160e-04,1.08,-0.056
-8.000e-04,1.12,-0.072
-7.840e-04,1.16,-0.088
-7.680e-04,1.16,-0.112
-7.520e-04,1.16,-0.136
-7.360e-04,1.2,-0.168
-7.200e-04,1.24,-0.2
-7.040e-04,1.28,-0.232
-6.880e-04,1.36,-0.264
-6.720e-04,1.44,-0.312
-6.560e-04,1.52,-0.352
-6.400e-04,1.56,-0.4
-6.240e-04,1.68,-0.448
-6.080e-04,1.8,-0.496
-5.920e-04,1.92,-0.552
-5.760e-04,2,-0.616
-5.600e-04,2.12,-0.672
-5.440e-04,2.2,-0.736
-5.280e-04,2.28,-0.792
-5.120e-04,2.32,-0.856
-4.960e-04,2.36,-0.912
-4.800e-04,2.28,-0.96
-4.640e-04,2.2,-1.016
-4.480e-04,2,-1.016
-4.320e-04,1.72,-1.016
-4.160e-04,1.44,-1.016
-4.000e-04,1.08,-1.016
-3.840e-04,0.68,-1.016
-3.680e-04,0.2,-1.016
-3.520e-04,-0.2,-1.016
-3.360e-04,-0.56,-0.96
-3.200e-04,-0.92,-0.896
-3.040e-04,-1.16,-0.824
-2.880e-04,-1.32,-0.744
-2.720e-04,-1.32,-0.664
-2.560e-04,-1.32,-0.592
-2.400e-04,-1.28,-0.512
-2.240e-04,-1.08,-0.448
-2.080e-04,-0.88,-0.392
-1.920e-04,-0.68,-0.344
-1.760e-04,-0.48,-0.296
-1.600e-04,-0.28,-0.264
-1.440e-04,-0.08,-0.232
-1.280e-04,0.12,-0.208
-1.120e-04,0.28,-0.184
-9.600e-05,0.4,-0.176
-8.000e-05,0.56,-0.16
-6.400e-05,0.68,-0.144
-4.800e-05,0.76,-0.136
-3.200e-05,0.84,-0.128
-1.600e-05,0.96,-0.128
2.440e-16,1,-0.112
1.600e-05,1.08,-0.104
3.200e-05,1.16,-0.112
4.800e-05,1.24,-0.096
6.400e-05,1.28,-0.096
8.000e-05,1.28,-0.104
9.600e-05,1.32,-0.096
1.120e-04,1.36,-0.104
1.280e-04,1.4,-0.096
1.440e-04,1.48,-0.104
1.600e-04,1.52,-0.112
1.760e-04,1.56,-0.12
1.920e-04,1.56,-0.128
2.080e-04,1.6,-0.144
2.240e-04,1.68,-0.152
2.400e-04,1.72,-0.176
2.560e-04,1.76,-0.2
2.720e-04,1.8,-0.224
2.880e-04,1.84,-0.248
3.040e-04,1.92,-0.272
3.200e-04,1.96,-0.312
3.360e-04,2.04,-0.344
3.520e-04,2.12,-0.384
3.680e-04,2.16,-0.424
3.840e-04,2.2,-0.472
4.000e-04,2.28,-0.52
4.160e-04,2.32,-0.568
4.320e-04,2.36,-0.624
4.480e-04,2.36,-0.672
4.640e-04,2.36,-0.728
4.800e-04,2.32,-0.776
4.960e-04,2.24,-0.824
5.120e-04,2.04,-0.864
5.280e-04,1.88,-0.896
5.440e-04,1.68,-0.92
5.600e-04,1.4,-0.944
5.760e-04,1,-0.952
5.920e-04,0.68,-0.944
6.080e-04,0.28,-0.928
6.240e-04,-0.08,-0.904
6.400e-04,-0.48,-0.872
6.560e-04,-0.76,-0.824
6.720e-04,-1.04,-0.776
6.880e-04,-1.24,-0.712
7.040e-04,-1.36,-0.656
7.200e-04,-1.4,-0.592
7.360e-04,-1.36,-0.536
7.520e-04,-1.32,-0.48
7.680e-04,-1.2,-0.432
7.840e-04,-1.04,-0.392
8.000e-04,-0.84,-0.368
8.160e-04,-0.68,-0.336
8.320e-04,-0.48,-0.312
8.480e-04,-0.32,-0.296
8.640e-04,-0.12,-0.28
8.800e-04,0.04,-0.272
8.960e-04,0.2,-0.272
9.120e-04,0.32,-0.264
9.280e-04,0.52,-0.264
9.440e-04,0.64,-0.264
9.600e-04,0.76,-0.264
9.760e-04,0.84,-0.264
9.920e-04,1,-0.272
1.008e-03,1.12,-0.272
1.024e-03,1.2,-0.272
1.040e-03,1.32,-0.28
1.056e-03,1.48,-0.288
1.072e-03,1.56,-0.288
1.088e-03,1.68,-0.296
1.104e-03,1.72,-0.304
1.120e-03,1.88,-0.312
1.136e-03,1.96,-0.32
1.152e-03,2.04,-0.336
1.168e-03,2.08,-0.344
1.184e-03,2.2,-0.36
1.200e-03,2.24,-0.368
1.216e-03,2.32,-0.384
1.232e-03,2.36,-0.4
1.248e-03,2.4,-0.416
1.264e-03,2.4,-0.424
1.280e-03,2.44,-0.44
1.296e-03,2.36,-0.456
1.312e-03,2.36,-0.472
1.328e-03,2.28,-0.488
1.344e-03,2.2,-0.504
1.360e-03,2.12,-0.512
1.376e-03,2,-0.52
1.392e-03,1.88,-0.536
1.408e-03,1.64,-0.536
1.424e-03,1.48,-0.536
1.440e-03,1.28,-0.536
1.456e-03,1.08,-0.52
1.472e-03,0.8,-0.512
1.488e-03,0.56,-0.496
1.504e-03,0.36,-0.472
1.520e-03,0.08,-0.456
1.536e-03,-0.12,-0.424
1.552e-03,-0.36,-0.4
1.568e-03,-0.52,-0.368
1.584e-03,-0.72,-0.336
1.600e-03,-0.88,-0.312
1.616e-03,-1,-0.272
1.632e-03,-1.12,-0.24
1.648e-03,-1.2,-0.208
1.664e-03,-1.28,-0.184
1.680e-03,-1.36,-0.16
1.696e-03,-1.36,-0.128
1.712e-03,-1.4,-0.112
1.728e-03,-1.44,-0.088
1.744e-03,-1.44,-0.064
1.760e-03,-1.44,-0.048
1.776e-03,-1.48,-0.032
1.792e-03,-1.48,-0.016
1.808e-03,-1.48,0
1.824e-03,-1.48,0.008
1.840e-03,-1.48,0.024
1.856e-03,-1.48,0.048
1.872e-03,-1.44,0.056
1.888e-03,-1.48,0.072
1.904e-03,-1.48,0.096
1.920e-03,-1.48,0.112
1.936e-03,-1.48,0.136
1.952e-03,-1.48,0.152
1.968e-03,-1.48,0.176
1.984e-03,-1.44,0.2
2.000e-03,-1.44,0.232
2.016e-03,-1.44,0.256
2.032e-03,-1.44,0.28
2.048e-03,-1.4,0.312
2.064e-03,-1.32,0.336
2.080e-03,-1.32,0.368
2.096e-03,-1.28,0.4
2.112e-03,-1.2,0.424
2.128e-03,-1.12,0.448
2.144e-03,-1,0.48
2.160e-03,-0.84,0.496
2.176e-03,-0.72,0.52
2.192e-03,-0.56,0.544
2.208e-03,-0.36,0.544
2.224e-03,-0.16,0.552
2.240e-03,0,0.552
2.256e-03,0.24,0.544
2.272e-03,0.52,0.528
2.288e-03,0.72,0.504
2.304e-03,0.96,0.48
2.320e-03,1.2,0.448
2.336e-03,1.44,0.408
2.352e-03,1.6,0.368
2.368e-03,1.76,0.32
2.384e-03,1.96,0.272
2.400e-03,2.08,0.216
2.416e-03,2.16,0.16
2.432e-03,2.24,0.112
2.448e-03,2.32,0.056
2.464e-03,2.32,0
2.480e-03,2.36,-0.056
2.496e-03,2.36,-0.104
2.512e-03,2.4,-0.16
2.528e-03,2.36,-0.208
2.544e-03,2.36,-0.264
2.560e-03,2.4,-0.328
2.576e-03,2.32,-0.368
2.592e-03,2.24,-0.416
2.608e-03,2.2,-0.464
2.624e-03,2.2,-0.512
2.640e-03,2.08,-0.56
2.656e-03,1.92,-0.592
2.672e-03,1.8,-0.632
2.688e-03,1.64,-0.664
2.704e-03,1.44,-0.688
2.720e-03,1.2,-0.704
2.736e-03,0.96,-0.712
2.752e-03,0.64,-0.72
2.768e-03,0.36,-0.72
2.784e-03,0.04,-0.704
2.800e-03,-0.24,-0.68
2.816e-03,-0.52,-0.656
2.832e-03,-0.76,-0.624
2.848e-03,-1,-0.584
2.864e-03,-1.2,-0.536
2.880e-03,-1.32,-0.496
2.896e-03,-1.4,-0.448
2.912e-03,-1.48,-0.4
2.928e-03,-1.48,-0.36
2.944e-03,-1.44,-0.32
2.960e-03,-1.4,-0.28
2.976e-03,-1.36,-0.248
2.992e-03,-1.28,-0.224
3.008e-03,-1.2,-0.184
3.024e-03,-1.08,-0.16
3.040e-03,-1,-0.136
3.056e-03,-0.96,-0.112
3.072e-03,-0.84,-0.096
3.088e-03,-0.8,-0.072
3.104e-03,-0.76,-0.048
3.120e-03,-0.72,-0.032
3.136e-03,-0.64,-0.016
3.152e-03,-0.6,0.008
3.168e-03,-0.6,0.024
3.184e-03,-0.6,0.048
3.200e-03,-0.52,0.08
3.216e-03,-0.56,0.104
3.232e-03,-0.56,0.136
3.248e-03,-0.56,0.16
3.264e-03,-0.6,0.192
3.280e-03,-0.64,0.224
3.296e-03,-0.72,0.264
3.312e-03,-0.76,0.296
3.328e-03,-0.8,0.336
3.344e-03,-0.92,0.376
3.360e-03,-0.96,0.416
3.376e-03,-1.04,0.472
3.392e-03,-1.16,0.504
3.408e-03,-1.24,0.552
3.424e-03,-1.28,0.6
3.440e-03,-1.36,0.64
3.456e-03,-1.4,0.68
3.472e-03,-1.44,0.72
3.488e-03,-1.36,0.76
3.504e-03,-1.36,0.792
3.520e-03,-1.24,0.816
3.536e-03,-1.04,0.832
3.552e-03,-0.88,0.84
3.568e-03,-0.64,0.84
3.584e-03,-0.32,0.824
3.600e-03,0,0.8
3.616e-03,0.36,0.76
3.632e-03,0.76,0.704
3.648e-03,1.08,0.64
3.664e-03,1.36,0.568
3.680e-03,1.68,0.48
3.696e-03,1.92,0.392
3.712e-03,2.12,0.296
3.728e-03,2.24,0.2
3.744e-03,2.36,0.104
3.760e-03,2.44,0
3.776e-03,2.44,-0.096
3.792e-03,2.48,-0.184
3.808e-03,2.48,-0.28
3.824e-03,2.48,-0.36
3.840e-03,2.44,-0.44
3.856e-03,2.4,-0.528
3.872e-03,2.4,-0.6
3.888e-03,2.32,-0.672
3.904e-03,2.28,-0.736
3.920e-03,2.16,-0.8
3.936e-03,2.04,-0.848
3.952e-03,1.84,-0.896
3.968e-03,1.6,-0.928
3.984e-03,1.28,-0.944
4.000e-03,0.96,-0.96
4.016e-03,0.64,-0.96
4.032e-03,0.28,-0.944
4.048e-03,-0.12,-0.912
4.064e-03,-0.48,-0.872
4.080e-03,-0.8,-0.824
4.096e-03,-1.04,-0.76
4.112e-03,-1.24,-0.696
4.128e-03,-1.36,-0.632
4.144e-03,-1.4,-0.56
4.160e-03,-1.36,-0.496
4.176e-03,-1.32,-0.44
4.192e-03,-1.2,-0.376
4.208e-03,-1.08,-0.328
4.224e-03,-0.84,-0.28
4.240e-03,-0.72,-0.232
4.256e-03,-0.56,-0.2
4.272e-03,-0.4,-0.168
4.288e-03,-0.24,-0.144
4.304e-03,-0.16,-0.12
4.320e-03,-0.04,-0.096
4.336e-03,0.08,-0.072
4.352e-03,0.16,-0.056
4.368e-03,0.2,-0.04
4.384e-03,0.28,-0.032
4.400e-03,0.32,-0.008
4.416e-03,0.36,0.008
4.432e-03,0.32,0.024
4.448e-03,0.4,0.04
4.464e-03,0.4,0.064
4.480e-03,0.36,0.08
4.496e-03,0.36,0.104
4.512e-03,0.36,0.12
4.528e-03,0.36,0.136
4.544e-03,0.28,0.16
4.560e-03,0.24,0.176
4.576e-03,0.2,0.192
4.592e-03,0.12,0.216
4.608e-03,0.04,0.232
4.624e-03,0,0.256
4.640e-03,-0.08,0.272
4.656e-03,-0.16,0.288
4.672e-03,-0.28,0.32
4.688e-03,-0.32,0.336
4.704e-03,-0.48,0.352
4.720e-03,-0.6,0.368
4.736e-03,-0.68,0.384
4.752e-03,-0.8,0.408
4.768e-03,-0.92,0.424
4.784e-03,-1.04,0.44
4.800e-03,-1.12,0.448
4.816e-03,-1.24,0.472
4.832e-03,-1.32,0.48
4.848e-03,-1.36,0.488
4.864e-03,-1.4,0.496
4.880e-03,-1.44,0.504
4.896e-03,-1.48,0.512
4.912e-03,-1.44,0.504
4.928e-03,-1.36,0.496
4.944e-03,-1.32,0.488
4.960e-03,-1.2,0.472
4.976e-03,-1.04,0.448
4.992e-03,-0.92,0.424
5.008e-03,-0.8,0.392
5.024e-03,-0.56,0.36
5.040e-03,-0.4,0.32
5.056e-03,-0.28,0.272
5.072e-03,-0.08,0.224
5.088e-03,0.08,0.168
5.104e-03,0.2,0.112
5.120e-03,0.32,0.056
5.136e-03,0.48,0
5.152e-03,0.56,-0.048
5.168e-03,0.6,-0.104
5.184e-03,0.64,-0.144
5.200e-03,0.68,-0.192
5.216e-03,0.64,-0.232
5.232e-03,0.56,-0.272
5.248e-03,0.48,-0.296
5.264e-03,0.44,-0.312
5.280e-03,0.36,-0.328
5.296e-03,0.2,-0.328
5.312e-03,0.04,-0.328
5.328e-03,-0.04,-0.312
5.344e-03,-0.2,-0.296
5.360e-03,-0.32,-0.264
5.376e-03,-0.48,-0.24
5.392e-03,-0.56,-0.2
5.408e-03,-0.72,-0.152
5.424e-03,-0.8,-0.104
5.440e-03,-0.92,-0.056
5.456e-03,-0.96,-0.008
5.472e-03,-1,0.048
5.488e-03,-1.08,0.104
5.504e-03,-1.08,0.16
5.520e-03,-1.08,0.216
5.536e-03,-1.12,0.264
5.552e-03,-1.08,0.32
5.568e-03,-1,0.368
5.584e-03,-0.92,0.416
5.600e-03,-0.88,0.448
5.616e-03,-0.76,0.48
5.632e-03,-0.64,0.512
5.648e-03,-0.48,0.536
5.664e-03,-0.28,0.552
5.680e-03,-0.08,0.56
5.696e-03,0.12,0.56
5.712e-03,0.32,0.552
5.728e-03,0.56,0.536
5.744e-03,0.84,0.504
5.760e-03,1.08,0.464
5.776e-03,1.28,0.424
5.792e-03,1.52,0.376
5.808e-03,1.68,0.32
5.824e-03,1.84,0.264
5.840e-03,2,0.192
5.856e-03,2.12,0.128
5.872e-03,2.24,0.064
5.888e-03,2.24,0
5.904e-03,2.36,-0.08
5.920e-03,2.32,-0.144
5.936e-03,2.32,-0.208
5.952e-03,2.32,-0.288
5.968e-03,2.32,-0.344
5.984e-03,2.32,-0.408
6.000e-03,2.24,-0.472
6.016e-03,2.16,-0.528
6.032e-03,2.08,-0.584
6.048e-03,2,-0.632
6.064e-03,1.84,-0.68
6.080e-03,1.64,-0.728
6.096e-03,1.44,-0.76
6.112e-03,1.2,-0.776
6.128e-03,0.92,-0.792
6.144e-03,0.64,-0.8
6.160e-03,0.28,-0.792
6.176e-03,0,-0.776
6.192e-03,-0.32,-0.752
6.208e-03,-0.64,-0.72
6.224e-03,-0.88,-0.68
6.240e-03,-1.08,-0.632
6.256e-03,-1.28,-0.576
6.272e-03,-1.4,-0.528
6.288e-03,-1.4,-0.48
6.304e-03,-1.44,-0.424
6.320e-03,-1.4,-0.376
6.336e-03,-1.4,-0.336
6.352e-03,-1.28,-0.288
6.368e-03,-1.16,-0.256
6.384e-03,-1.04,-0.224
6.400e-03,-0.96,-0.192
6.416e-03,-0.84,-0.16
6.432e-03,-0.68,-0.128
6.448e-03,-0.64,-0.112
6.464e-03,-0.56,-0.088
6.480e-03,-0.44,-0.072
6.496e-03,-0.36,-0.048
6.512e-03,-0.36,-0.032
6.528e-03,-0.28,-0.008
6.544e-03,-0.24,0.008
6.560e-03,-0.2,0.032
6.576e-03,-0.24,0.056
6.592e-03,-0.2,0.08
6.608e-03,-0.16,0.104
6.624e-03,-0.2,0.136
6.640e-03,-0.24,0.16
6.656e-03,-0.28,0.184
6.672e-03,-0.32,0.216
6.688e-03,-0.36,0.248
6.704e-03,-0.4,0.28
6.720e-03,-0.48,0.312
6.736e-03,-0.6,0.352
6.752e-03,-0.68,0.384
6.768e-03,-0.76,0.424
6.784e-03,-0.88,0.472
6.800e-03,-0.96,0.504
6.816e-03,-1.08,0.544
6.832e-03,-1.16,0.584
6.848e-03,-1.24,0.624
6.864e-03,-1.36,0.656
6.880e-03,-1.4,0.696
6.896e-03,-1.4,0.728
6.912e-03,-1.4,0.76
6.928e-03,-1.36,0.776
6.944e-03,-1.24,0.792
6.960e-03,-1.08,0.8
6.976e-03,-0.88,0.792
6.992e-03,-0.64,0.776
7.008e-03,-0.32,0.752
7.024e-03,-0.04,0.712
7.040e-03,0.32,0.656
7.056e-03,0.64,0.592
7.072e-03,0.96,0.528
7.088e-03,1.24,0.44
7.104e-03,1.56,0.344
7.120e-03,1.76,0.256
7.136e-03,1.92,0.152
7.152e-03,2.08,0.048
7.168e-03,2.24,-0.048
7.184e-03,2.28,-0.144
7.200e-03,2.32,-0.24
7.216e-03,2.32,-0.336
7.232e-03,2.36,-0.424
7.248e-03,2.28,-0.512
7.264e-03,2.2,-0.592
7.280e-03,2.12,-0.656
7.296e-03,2.04,-0.72
7.312e-03,1.84,-0.776
7.328e-03,1.64,-0.824
7.344e-03,1.4,-0.856
7.360e-03,1.16,-0.88
7.376e-03,0.84,-0.888
7.392e-03,0.48,-0.88
7.408e-03,0.12,-0.864
7.424e-03,-0.2,-0.832
7.440e-03,-0.56,-0.792
7.456e-03,-0.84,-0.736
7.472e-03,-1.12,-0.68
7.488e-03,-1.24,-0.616
7.504e-03,-1.36,-0.544
7.520e-03,-1.44,-0.472
7.536e-03,-1.44,-0.4
7.552e-03,-1.36,-0.336
7.568e-03,-1.28,-0.28
7.584e-03,-1.24,-0.208
7.600e-03,-1.08,-0.16
7.616e-03,-1,-0.104
7.632e-03,-0.88,-0.064
7.648e-03,-0.8,-0.016
7.664e-03,-0.72,0.016
7.680e-03,-0.6,0.064
7.696e-03,-0.6,0.096
7.712e-03,-0.6,0.136
7.728e-03,-0.6,0.168
7.744e-03,-0.56,0.208
7.760e-03,-0.6,0.24
7.776e-03,-0.68,0.28
7.792e-03,-0.72,0.32
7.808e-03,-0.8,0.36
7.824e-03,-0.88,0.4
7.840e-03,-0.92,0.44
7.856e-03,-1.04,0.488
7.872e-03,-1.16,0.536
7.888e-03,-1.24,0.584
7.904e-03,-1.28,0.616
7.920e-03,-1.32,0.664
7.936e-03,-1.4,0.704
7.952e-03,-1.4,0.736
7.968e-03,-1.36,0.776
7.984e-03,-1.32,0.8
8.000e-03,-1.24,0.816
8.016e-03,-1,0.832
8.032e-03,-0.84,0.832
8.048e-03,-0.56,0.816
8.064e-03,-0.2,0.8
8.080e-03,0.08,0.768
8.096e-03,0.4,0.712
8.112e-03,0.8,0.664
8.128e-03,1.2,0.584
8.144e-03,1.44,0.504
8.160e-03,1.72,0.416
8.176e-03,1.96,0.32
8.192e-03,2.08,0.224
8.208e-03,2.24,0.12
8.224e-03,2.32,0.024
8.240e-03,2.44,-0.072
8.256e-03,2.44,-0.168
8.272e-03,2.48,-0.264
8.288e-03,2.48,-0.36
8.304e-03,2.44,-0.44
8.320e-03,2.4,-0.528
8.336e-03,2.36,-0.608
8.352e-03,2.28,-0.672
8.368e-03,2.24,-0.736
8.384e-03,2.04,-0.8
8.400e-03,1.88,-0.848
8.416e-03,1.72,-0.888
8.432e-03,1.48,-0.92
8.448e-03,1.16,-0.936
8.464e-03,0.8,-0.944
8.480e-03,0.4,-0.936
8.496e-03,0.08,-0.912
8.512e-03,-0.28,-0.88
8.528e-03,-0.6,-0.832
8.544e-03,-0.92,-0.784
8.560e-03,-1.16,-0.72
8.576e-03,-1.28,-0.648
8.592e-03,-1.4,-0.576
8.608e-03,-1.44,-0.512
8.624e-03,-1.36,-0.448
8.640e-03,-1.28,-0.384
8.656e-03,-1.2,-0.328
8.672e-03,-1.04,-0.272
8.688e-03,-0.88,-0.224
8.704e-03,-0.72,-0.184
8.720e-03,-0.56,-0.144
8.736e-03,-0.44,-0.12
8.752e-03,-0.32,-0.08
8.768e-03,-0.24,-0.056
8.784e-03,-0.16,-0.032
8.800e-03,-0.08,-0.016
8.816e-03,-0.04,0.008
8.832e-03,0,0.032
8.848e-03,0,0.056
8.864e-03,0.04,0.08
8.880e-03,0.08,0.104
8.896e-03,0,0.136
8.912e-03,-0.04,0.16
8.928e-03,-0.04,0.184
8.944e-03,-0.04,0.216
8.960e-03,-0.12,0.24
8.976e-03,-0.2,0.264
8.992e-03,-0.24,0.296
9.008e-03,-0.36,0.328
9.024e-03,-0.48,0.36
9.040e-03,-0.52,0.392
9.056e-03,-0.68,0.424
9.072e-03,-0.76,0.456
9.088e-03,-0.92,0.488
9.104e-03,-1,0.52
9.120e-03,-1.12,0.552
9.136e-03,-1.24,0.584
9.152e-03,-1.28,0.616
9.168e-03,-1.4,0.64
9.184e-03,-1.4,0.664
9.200e-03,-1.44,0.68
9.216e-03,-1.4,0.696
9.232e-03,-1.32,0.712
9.248e-03,-1.24,0.712
9.264e-03,-1.04,0.704
9.280e-03,-0.84,0.688
9.296e-03,-0.64,0.664
9.312e-03,-0.36,0.624
9.328e-03,-0.04,0.576
9.344e-03,0.2,0.528
9.360e-03,0.48,0.464
9.376e-03,0.84,0.376
9.392e-03,1.08,0.296
9.408e-03,1.28,0.208
9.424e-03,1.48,0.12
9.440e-03,1.68,0.024
9.456e-03,1.76,-0.064
9.472e-03,1.84,-0.16
9.488e-03,1.88,-0.248
9.504e-03,1.92,-0.336
9.520e-03,1.88,-0.416
9.536e-03,1.88,-0.488
9.552e-03,1.76,-0.56
9.568e-03,1.68,-0.608
9.584e-03,1.52,-0.664
9.600e-03,1.28,-0.696
9.616e-03,1.04,-0.728
9.632e-03,0.84,-0.744
9.648e-03,0.56,-0.752
9.664e-03,0.2,-0.736
9.680e-03,-0.08,-0.712
9.696e-03,-0.36,-0.68
9.712e-03,-0.64,-0.632
9.728e-03,-0.92,-0.584
9.744e-03,-1.12,-0.528
9.760e-03,-1.24,-0.456
9.776e-03,-1.36,-0.392
9.792e-03,-1.44,-0.32
9.808e-03,-1.48,-0.248
9.824e-03,-1.48,-0.184
9.840e-03,-1.44,-0.112
9.856e-03,-1.44,-0.048
9.872e-03,-1.4,0.008
9.888e-03,-1.32,0.072
9.904e-03,-1.32,0.128
9.920e-03,-1.28,0.184
9.936e-03,-1.28,0.24
9.952e-03,-1.28,0.288
9.968e-03,-1.28,0.344
9.984e-03,-1.28,0.392
1.000e-02,-1.32,0.44
1.002e-02,-1.36,0.496
1.003e-02,-1.4,0.544
1.005e-02,-1.4,0.592
1.006e-02,-1.44,0.64
1.008e-02,-1.44,0.688
1.010e-02,-1.36,0.72
1.011e-02,-1.24,0.76
1.013e-02,-1.16,0.784
1.014e-02,-1,0.808
1.016e-02,-0.76,0.816
1.018e-02,-0.48,0.816
1.019e-02,-0.24,0.808
1.021e-02,0.12,0.784
1.022e-02,0.48,0.76
1.024e-02,0.84,0.704
1.026e-02,1.16,0.648
1.027e-02,1.48,0.584
1.029e-02,1.72,0.504
1.030e-02,1.96,0.424
1.032e-02,2.12,0.336
1.034e-02,2.28,0.248
1.035e-02,2.36,0.16
1.037e-02,2.4,0.064
1.038e-02,2.48,-0.016
1.040e-02,2.52,-0.104
1.042e-02,2.44,-0.184
1.043e-02,2.44,-0.264
1.045e-02,2.44,-0.344
1.046e-02,2.44,-0.424
1.048e-02,2.4,-0.496
1.050e-02,2.4,-0.568
1.051e-02,2.4,-0.632
1.053e-02,2.32,-0.696
1.054e-02,2.24,-0.76
1.056e-02,2.12,-0.816
1.058e-02,2.04,-0.864
1.059e-02,1.8,-0.904
1.061e-02,1.56,-0.936
1.062e-02,1.24,-0.952
1.064e-02,0.92,-0.96
1.066e-02,0.56,-0.952
1.067e-02,0.2,-0.936
1.069e-02,-0.2,-0.912
1.070e-02,-0.52,-0.872
1.072e-02,-0.84,-0.816
1.074e-02,-1.12,-0.76
1.075e-02,-1.28,-0.696
1.077e-02,-1.36,-0.632
1.078e-02,-1.4,-0.568
1.080e-02,-1.36,-0.504
1.082e-02,-1.32,-0.448
1.083e-02,-1.16,-0.392
1.085e-02,-1,-0.352
1.086e-02,-0.84,-0.312
1.088e-02,-0.64,-0.28
1.090e-02,-0.44,-0.248
1.091e-02,-0.28,-0.224
1.093e-02,-0.12,-0.2
1.094e-02,-0.04,-0.192
1.096e-02,0.12,-0.168
1.098e-02,0.28,-0.152
1.099e-02,0.36,-0.136
1.101e-02,0.44,-0.128
1.102e-02,0.52,-0.12
1.104e-02,0.64,-0.112
1.106e-02,0.64,-0.104
1.107e-02,0.72,-0.088
1.109e-02,0.8,-0.08
1.110e-02,0.84,-0.072
1.112e-02,0.88,-0.064
1.114e-02,0.96,-0.056
1.115e-02,1,-0.048
1.117e-02,1,-0.04
1.118e-02,1.04,-0.04
1.120e-02,1.08,-0.032
1.122e-02,1.12,-0.024
1.123e-02,1.12,-0.032
1.125e-02,1.12,-0.024
1.126e-02,1.2,-0.024
1.128e-02,1.24,-0.032
1.130e-02,1.2,-0.024
1.131e-02,1.2,-0.032
1.133e-02,1.24,-0.04
1.134e-02,1.28,-0.056
1.136e-02,1.24,-0.072
1.138e-02,1.28,-0.088
1.139e-02,1.32,-0.104
1.141e-02,1.36,-0.12
1.142e-02,1.36,-0.136
1.144e-02,1.36,-0.16
1.146e-02,1.48,-0.192
1.147e-02,1.52,-0.232
1.149e-02,1.52,-0.264
1.150e-02,1.6,-0.288
1.152e-02,1.68,-0.336
1.154e-02,1.76,-0.376
1.155e-02,1.84,-0.424
1.157e-02,1.96,-0.472
1.158e-02,2.04,-0.528
1.160e-02,2.08,-0.584
1.162e-02,2.16,-0.64
1.163e-02,2.28,-0.704
1.165e-02,2.32,-0.76
1.166e-02,2.32,-0.824
1.168e-02,2.32,-0.88
1.170e-02,2.28,-0.928
1.171e-02,2.16,-0.968
1.173e-02,1.96,-1.016
1.174e-02,1.68,-1.016
1.176e-02,1.44,-1.016
1.178e-02,1.04,-1.016
1.179e-02,0.64,-1.016
1.181e-02,0.2,-1.016
1.182e-02,-0.2,-0.992
1.184e-02,-0.56,-0.952
1.186e-02,-0.88,-0.888
1.187e-02,-1.16,-0.824
1.189e-02,-1.32,-0.76
1.190e-02,-1.36,-0.68
1.192e-02,-1.36,-0.616
1.194e-02,-1.28,-0.544
1.195e-02,-1.16,-0.48
1.197e-02,-0.92,-0.432
1.198e-02,-0.72,-0.384
1.200e-02,-0.48,-0.352
1.202e-02,-0.28,-0.32
1.203e-02,-0.04,-0.296
1.205e-02,0.16,-0.272
1.206e-02,0.32,-0.264
1.208e-02,0.48,-0.248
1.210e-02,0.64,-0.248
1.211e-02,0.8,-0.24
1.213e-02,0.92,-0.24
1.214e-02,1.04,-0.232
1.216e-02,1.16,-0.232
1.218e-02,1.32,-0.232
1.219e-02,1.4,-0.24
1.221e-02,1.44,-0.24
1.222e-02,1.56,-0.24
1.224e-02,1.68,-0.248
1.226e-02,1.72,-0.248
1.227e-02,1.8,-0.256
1.229e-02,1.88,-0.264
1.230e-02,1.96,-0.28
1.232e-02,2.04,-0.288
1.234e-02,2.08,-0.304
1.235e-02,2.2,-0.312
1.237e-02,2.24,-0.328
1.238e-02,2.28,-0.352
1.240e-02,2.32,-0.368
1.242e-02,2.36,-0.392
1.243e-02,2.4,-0.408
1.245e-02,2.4,-0.44
1.246e-02,2.36,-0.456
1.248e-02,2.4,-0.48
1.250e-02,2.36,-0.504
1.251e-02,2.24,-0.528
1.253e-02,2.2,-0.552
1.254e-02,2.12,-0.568
1.256e-02,2,-0.592
1.258e-02,1.76,-0.608
1.259e-02,1.56,-0.616
1.261e-02,1.4,-0.624
1.262e-02,1.12,-0.624
1.264e-02,0.84,-0.624
1.266e-02,0.6,-0.616
1.267e-02,0.36,-0.6
1.269e-02,0.04,-0.576
1.270e-02,-0.24,-0.552
1.272e-02,-0.48,-0.52
1.274e-02,-0.68,-0.488
1.275e-02,-0.88,-0.448
1.277e-02,-1.04,-0.416
1.278e-02,-1.2,-0.376
1.280e-02,-1.32,-0.344
1.282e-02,-1.4,-0.304
1.283e-02,-1.48,-0.264
1.285e-02,-1.48,-0.232
1.286e-02,-1.48,-0.2
1.288e-02,-1.48,-0.176
1.290e-02,-1.48,-0.144
1.291e-02,-1.44,-0.12
1.293e-02,-1.4,-0.104
1.294e-02,-1.4,-0.08
1.296e-02,-1.4,-0.056
1.298e-02,-1.36,-0.04
1.299e-02,-1.32,-0.024
1.301e-02,-1.32,-0.008
1.302e-02,-1.28,0.008
1.304e-02,-1.28,0.032
1.306e-02,-1.24,0.048
1.307e-02,-1.28,0.072
1.309e-02,-1.28,0.104
1.310e-02,-1.24,0.12
1.312e-02,-1.24,0.152
1.314e-02,-1.28,0.176
1.315e-02,-1.32,0.208
1.317e-02,-1.28,0.24
1.318e-02,-1.32,0.272
1.320e-02,-1.36,0.312
1.322e-02,-1.4,0.36
1.323e-02,-1.4,0.392
1.325e-02,-1.44,0.432
1.326e-02,-1.44,0.472
1.328e-02,-1.44,0.512
1.330e-02,-1.44,0.552
1.331e-02,-1.44,0.592
1.333e-02,-1.36,0.632
1.334e-02,-1.24,0.672
1.336e-02,-1.12,0.696
1.338e-02,-0.96,0.72
1.339e-02,-0.72,0.744
1.341e-02,-0.56,0.752
1.342e-02,-0.28,0.752
1.344e-02,0.04,0.744
1.346e-02,0.28,0.72
1.347e-02,0.64,0.696
1.349e-02,1,0.656
1.350e-02,1.28,0.608
1.352e-02,1.56,0.552
1.354e-02,1.8,0.488
1.355e-02,2,0.424
1.357e-02,2.2,0.344
1.358e-02,2.28,0.264
1.360e-02,2.36,0.192
1.362e-02,2.44,0.12
1.363e-02,2.44,0.04
1.365e-02,2.44,-0.032
1.366e-02,2.44,-0.096
1.368e-02,2.44,-0.16
1.370e-02,2.44,-0.232
1.371e-02,2.4,-0.296
1.373e-02,2.44,-0.36
1.374e-02,2.44,-0.416
1.376e-02,2.4,-0.48
1.378e-02,2.4,-0.544
1.379e-02,2.36,-0.6
1.381e-02,2.32,-0.656
1.382e-02,2.28,-0.712
1.384e-02,2.12,-0.76
1.386e-02,2,-0.808
1.387e-02,1.8,-0.84
1.389e-02,1.56,-0.88
1.390e-02,1.28,-0.896
1.392e-02,0.96,-0.904
1.394e-02,0.64,-0.904
1.395e-02,0.28,-0.896
1.397e-02,-0.12,-0.872
1.398e-02,-0.44,-0.832
1.400e-02,-0.72,-0.792
1.402e-02,-1,-0.744
1.403e-02,-1.2,-0.688
1.405e-02,-1.36,-0.632
1.406e-02,-1.4,-0.576
1.408e-02,-1.4,-0.512
1.410e-02,-1.36,-0.464
1.411e-02,-1.28,-0.408
1.413e-02,-1.12,-0.368
1.414e-02,-0.96,-0.336
1.416e-02,-0.84,-0.296
1.418e-02,-0.64,-0.272
1.419e-02,-0.52,-0.248
1.421e-02,-0.32,-0.232
1.422e-02,-0.24,-0.216
1.424e-02,-0.08,-0.2
1.426e-02,0.04,-0.192
1.427e-02,0.16,-0.184
1.429e-02,0.28,-0.176
1.430e-02,0.36,-0.16
1.432e-02,0.48,-0.16
1.434e-02,0.56,-0.16
1.435e-02,0.64,-0.144
1.437e-02,0.72,-0.136
1.438e-02,0.84,-0.128
1.440e-02,0.84,-0.128
1.442e-02,0.92,-0.12
1.443e-02,1,-0.112
1.445e-02,1.08,-0.104
1.446e-02,1.12,-0.104
1.448e-02,1.16,-0.104
1.450e-02,1.24,-0.096
1.451e-02,1.28,-0.096
1.453e-02,1.32,-0.104
1.454e-02,1.4,-0.096
1.456e-02,1.48,-0.096
1.458e-02,1.48,-0.104
1.459e-02,1.52,-0.112
1.461e-02,1.52,-0.112
1.462e-02,1.6,-0.12
1.464e-02,1.64,-0.144
1.466e-02,1.64,-0.16
1.467e-02,1.72,-0.168
1.469e-02,1.76,-0.192
1.470e-02,1.8,-0.208
1.472e-02,1.84,-0.24
1.474e-02,1.92,-0.264
1.475e-02,2,-0.296
1.477e-02,2,-0.328
1.478e-02,2.08,-0.368
1.480e-02,2.16,-0.408
1.482e-02,2.2,-0.448
1.483e-02,2.28,-0.496
1.485e-02,2.32,-0.544
1.486e-02,2.36,-0.592
1.488e-02,2.36,-0.64
1.490e-02,2.36,-0.704
1.491e-02,2.32,-0.744
1.493e-02,2.28,-0.792
1.494e-02,2.16,-0.84
1.496e-02,2,-0.872
1.498e-02,1.76,-0.904
1.499e-02,1.48,-0.928
1.501e-02,1.2,-0.936
1.502e-02,0.84,-0.944
1.504e-02,0.44,-0.928
1.506e-02,0.04,-0.912
1.507e-02,-0.28,-0.88
1.509e-02,-0.6,-0.84
1.510e-02,-0.92,-0.792
1.512e-02,-1.16,-0.736
1.514e-02,-1.28,-0.672
1.515e-02,-1.4,-0.616
1.517e-02,-1.44,-0.56
1.518e-02,-1.4,-0.512
1.520e-02,-1.28,-0.456
1.522e-02,-1.16,-0.408
1.523e-02,-1,-0.376
1.525e-02,-0.84,-0.352
1.526e-02,-0.56,-0.32
1.528e-02,-0.44,-0.296
1.530e-02,-0.28,-0.288
1.531e-02,-0.12,-0.272
1.533e-02,0.08,-0.264
1.534e-02,0.24,-0.264
1.536e-02,0.36,-0.256
1.538e-02,0.48,-0.256
1.539e-02,0.68,-0.256
1.541e-02,0.76,-0.264
1.542e-02,0.88,-0.264
1.544e-02,1,-0.264
1.546e-02,1.12,-0.264
1.547e-02,1.24,-0.272
1.549e-02,1.32,-0.28
1.550e-02,1.44,-0.28
1.552e-02,1.56,-0.288
1.554e-02,1.64,-0.296
1.555e-02,1.76,-0.296
1.557e-02,1.84,-0.304
1.558e-02,1.96,-0.312
1.560e-02,2,-0.328
1.562e-02,2.08,-0.336
1.563e-02,2.16,-0.344
1.565e-02,2.24,-0.36
1.566e-02,2.28,-0.376
1.568e-02,2.32,-0.392
1.570e-02,2.36,-0.4
1.571e-02,2.4,-0.416
1.573e-02,2.4,-0.44
1.574e-02,2.36,-0.456
1.576e-02,2.36,-0.472
1.578e-02,2.32,-0.488
1.579e-02,2.2,-0.504
1.581e-02,2.12,-0.512
1.582e-02,2.04,-0.528
1.584e-02,1.92,-0.536
1.586e-02,1.68,-0.544
1.587e-02,1.52,-0.544
1.589e-02,1.36,-0.544
1.590e-02,1.16,-0.544
1.592e-02,0.92,-0.528
1.594e-02,0.6,-0.512
1.595e-02,0.4,-0.496
1.597e-02,0.16,-0.472
1.598e-02,-0.08,-0.448

